M- 30 del, 2
Integration time: 5000 ms
Average: 1 scans
Nr of pixels used for smoothing: 0
Data measured with spectrometer serial number: 0604021S1
Wave   ;Sample
[nm]   ;[counts]
173,70;76,000
174,30;29,000
174,90;20,000
175,50;-1,0000
176,10;149,00
176,70;95,000
177,30;-53,000
177,90;76,000
178,50;-46,000
179,10;30,000
179,70;9,0000
180,30;39,000
180,89;7,0000
181,49;61,000
182,09;27,000
182,69;-90,000
183,29;-6,0000
183,89;16,000
184,49;110,00
185,09;58,000
185,69;11,000
186,29;38,000
186,89;66,000
187,48;-12,000
188,08;-22,000
188,68;1,0000
189,28;-2,0000
189,88;-26,000
190,48;-69,000
191,08;50,000
191,68;38,000
192,28;65,000
192,87;-121,00
193,47;47,000
194,07;-108,00
194,67;6,0000
195,27;-60,000
195,87;2,0000
196,47;-3,0000
197,06;-17,000
197,66;-10,0000
198,26;-2,0000
198,86;14,000
199,46;29,000
200,06;59,000
200,66;-42,000
201,25;-70,000
201,85;39,000
202,45;-18,000
203,05;-4,0000
203,65;-25,000
204,24;-104,00
204,84;-12,000
205,44;-57,000
206,04;-5,0000
206,64;17,000
207,24;-5,0000
207,83;-4,0000
208,43;18,000
209,03;30,000
209,63;20,000
210,22;84,000
210,82;-29,000
211,42;-34,000
212,02;-140,00
212,62;-42,000
213,21;-48,000
213,81;2,0000
214,41;-58,000
215,01;-24,000
215,60;31,000
216,20;-99,000
216,80;-14,000
217,40;49,000
218,00;97,000
218,59;-44,000
219,19;-26,000
219,79;103,00
220,38;-98,000
220,98;-115,00
221,58;66,000
222,18;50,000
222,77;35,000
223,37;-14,000
223,97;-26,000
224,57;10,0000
225,16;27,000
225,76;31,000
226,36;-18,000
226,95;-62,000
227,55;-84,000
228,15;46,000
228,75;1,0000
229,34;-169,00
229,94;38,000
230,54;102,00
231,13;2,0000
231,73;-20,000
232,33;-67,000
232,92;-23,000
233,52;33,000
234,12;-38,000
234,71;88,000
235,31;-41,000
235,91;42,000
236,50;-10,0000
237,10;4,0000
237,70;-410,00
238,29;-8,0000
238,89;-2,0000
239,49;13,000
240,08;49,000
240,68;32,000
241,28;44,000
241,87;105,00
242,47;29,000
243,06;46,000
243,66;-31,000
244,26;3,0000
244,85;29,000
245,45;-10,0000
246,05;33,000
246,64;39,000
247,24;21,000
247,83;63,000
248,43;79,000
249,03;4,0000
249,62;-35,000
250,22;-59,000
250,81;43,000
251,41;50,000
252,01;-7,0000
252,60;-58,000
253,20;52,000
253,79;-20,000
254,39;67,000
254,98;29,000
255,58;-2,0000
256,18;57,000
256,77;29,000
257,37;24,000
257,96;80,000
258,56;-25,000
259,15;89,000
259,75;25,000
260,34;-44,000
260,94;-28,000
261,53;25,000
262,13;-58,000
262,73;65,000
263,32;53,000
263,92;15,000
264,51;134,00
265,11;50,000
265,70;-28,000
266,30;-9,0000
266,89;38,000
267,49;42,000
268,08;-89,000
268,68;33,000
269,27;2,0000
269,87;165,00
270,46;-48,000
271,06;-5,0000
271,65;76,000
272,25;-62,000
272,84;43,000
273,44;-82,000
274,03;6,0000
274,62;10,0000
275,22;18,000
275,81;-49,000
276,41;-53,000
277,00;12,000
277,60;32,000
278,19;-54,000
278,79;7,0000
279,38;-23,000
279,98;-30,000
280,57;-67,000
281,16;27,000
281,76;10,0000
282,35;47,000
282,95;-47,000
283,54;17,000
284,14;-68,000
284,73;-80,000
285,32;-2,0000
285,92;117,00
286,51;45,000
287,11;14,000
287,70;11,000
288,29;-18,000
288,89;21,000
289,48;-4,0000
290,08;-62,000
290,67;76,000
291,26;48,000
291,86;3,0000
292,45;4,0000
293,04;3,0000
293,64;-39,000
294,23;-22,000
294,83;-38,000
295,42;-28,000
296,01;-21,000
296,61;17,000
297,20;-13,000
297,79;65,000
298,39;10,0000
298,98;94,000
299,57;-6,0000
300,17;35,000
300,76;19,000
301,35;-39,000
301,95;2,0000
302,54;38,000
303,13;61,000
303,73;-4,0000
304,32;89,000
304,91;51,000
305,51;71,000
306,10;25,000
306,69;-87,000
307,28;74,000
307,88;74,000
308,47;-51,000
309,06;-40,000
309,66;39,000
310,25;44,000
310,84;19,000
311,43;-8,0000
312,03;-34,000
312,62;46,000
313,21;235,00
313,81;57,000
314,40;171,00
314,99;391,00
315,58;502,00
316,18;615,00
316,77;579,00
317,36;660,00
317,95;480,00
318,54;400,00
319,14;267,00
319,73;116,00
320,32;14,000
320,91;93,000
321,51;19,000
322,10;-19,000
322,69;-16,000
323,28;27,000
323,87;-57,000
324,47;-85,000
325,06;27,000
325,65;-52,000
326,24;-14,000
326,83;3,0000
327,43;47,000
328,02;123,00
328,61;87,000
329,20;26,000
329,79;27,000
330,39;11,000
330,98;115,00
331,57;134,00
332,16;137,00
332,75;139,00
333,34;155,00
333,93;206,00
334,53;320,00
335,12;413,00
335,71;1007,0
336,30;2717,0
336,89;4312,0
337,48;4289,0
338,07;4400,0
338,67;4334,0
339,26;4107,0
339,85;3661,0
340,44;2290,0
341,03;529,00
341,62;32,000
342,21;21,000
342,80;101,00
343,39;95,000
343,99;-19,000
344,58;-78,000
345,17;113,00
345,76;34,000
346,35;34,000
346,94;41,000
347,53;27,000
348,12;115,00
348,71;20,000
349,30;23,000
349,89;165,00
350,48;221,00
351,07;244,00
351,66;314,00
352,26;594,00
352,85;1061,0
353,44;1514,0
354,03;1537,0
354,62;1662,0
355,21;1724,0
355,80;2171,0
356,39;3267,0
356,98;5228,0
357,57;5997,0
358,16;6220,0
358,75;6006,0
359,34;5810,0
359,93;5499,0
360,52;4431,0
361,11;2380,0
361,70;185,00
362,29;24,000
362,88;57,000
363,47;49,000
364,06;18,000
364,65;15,000
365,24;55,000
365,83;4,0000
366,42;138,00
367,01;219,00
367,60;168,00
368,19;213,00
368,78;233,00
369,37;117,00
369,95;347,00
370,54;485,00
371,13;447,00
371,72;516,00
372,31;634,00
372,90;562,00
373,49;738,00
374,08;960,00
374,67;1547,0
375,26;1922,0
375,85;2098,0
376,44;2035,0
377,03;2169,0
377,61;2132,0
378,20;1910,0
378,79;1769,0
379,38;1770,0
379,97;2939,0
380,56;3264,0
381,15;3334,0
381,74;3327,0
382,33;3125,0
382,91;2823,0
383,50;2192,0
384,09;705,00
384,68;69,000
385,27;95,000
385,86;43,000
386,45;113,00
387,03;151,00
387,62;160,00
388,21;106,00
388,80;113,00
389,39;190,00
389,98;131,00
390,57;46,000
391,15;186,00
391,74;67,000
392,33;173,00
392,92;213,00
393,51;348,00
394,09;473,00
394,68;360,00
395,27;403,00
395,86;465,00
396,45;442,00
397,03;463,00
397,62;317,00
398,21;469,00
398,80;573,00
399,39;1125,0
399,97;1284,0
400,56;1285,0
401,15;1220,0
401,74;1238,0
402,32;1146,0
402,91;836,00
403,50;535,00
404,09;486,00
404,67;691,00
405,26;1110,0
405,85;1489,0
406,44;1428,0
407,02;1537,0
407,61;1283,0
408,20;1205,0
408,78;1173,0
409,37;680,00
409,96;238,00
410,55;166,00
411,13;215,00
411,72;182,00
412,31;96,000
412,89;110,00
413,48;135,00
414,07;189,00
414,65;153,00
415,24;217,00
415,83;166,00
416,42;106,00
417,00;154,00
417,59;-66,000
418,18;102,00
418,76;267,00
419,35;409,00
419,94;469,00
420,52;420,00
421,11;443,00
421,69;461,00
422,28;500,00
422,87;251,00
423,45;265,00
424,04;102,00
424,63;199,00
425,21;277,00
425,80;464,00
426,38;695,00
426,97;711,00
427,56;773,00
428,14;833,00
428,73;792,00
429,31;675,00
429,90;514,00
430,49;222,00
431,07;150,00
431,66;148,00
432,24;264,00
432,83;278,00
433,42;420,00
434,00;547,00
434,59;489,00
435,17;729,00
435,76;558,00
436,34;536,00
436,93;459,00
437,51;504,00
438,10;122,00
438,69;109,00
439,27;5,0000
439,86;135,00
440,44;65,000
441,03;133,00
441,61;171,00
442,20;29,000
442,78;55,000
443,37;74,000
443,95;94,000
444,54;7,0000
445,12;113,00
445,71;-37,000
446,29;-60,000
446,88;-68,000
447,46;88,000
448,05;133,00
448,63;213,00
449,22;110,00
449,80;66,000
450,39;63,000
450,97;149,00
451,56;47,000
452,14;51,000
452,72;50,000
453,31;28,000
453,89;157,00
454,48;-56,000
455,06;73,000
455,65;21,000
456,23;167,00
456,81;288,00
457,40;171,00
457,98;114,00
458,57;191,00
459,15;168,00
459,74;183,00
460,32;25,000
460,90;67,000
461,49;37,000
462,07;15,000
462,66;-107,00
463,24;56,000
463,82;43,000
464,41;54,000
464,99;140,00
465,57;116,00
466,16;137,00
466,74;253,00
467,33;102,00
467,91;184,00
468,49;85,000
469,08;87,000
469,66;22,000
470,24;153,00
470,83;-7,0000
471,41;23,000
471,99;-84,000
472,58;40,000
473,16;49,000
473,74;45,000
474,33;-29,000
474,91;-37,000
475,49;57,000
476,08;11,000
476,66;12,000
477,24;45,000
477,82;23,000
478,41;125,00
478,99;94,000
479,57;36,000
480,16;-36,000
480,74;96,000
481,32;79,000
481,90;56,000
482,49;134,00
483,07;37,000
483,65;45,000
484,23;20,000
484,82;84,000
485,40;43,000
485,98;-25,000
486,56;127,00
487,15;-44,000
487,73;14,000
488,31;-56,000
488,89;53,000
489,47;18,000
490,06;7,0000
490,64;113,00
491,22;-10,0000
491,80;-3,0000
492,39;77,000
492,97;109,00
493,55;133,00
494,13;60,000
494,71;-10,0000
495,29;52,000
495,88;-46,000
496,46;26,000
497,04;-56,000
497,62;49,000
498,20;-26,000
498,78;-14,000
499,37;-13,000
499,95;-126,00
500,53;-51,000
501,11;92,000
501,69;89,000
502,27;26,000
502,85;-40,000
503,44;-6,0000
504,02;69,000
504,60;33,000
505,18;-22,000
505,76;99,000
506,34;-21,000
506,92;69,000
507,50;-6,0000
508,08;33,000
508,67;78,000
509,25;58,000
509,83;46,000
510,41;39,000
510,99;1,0000
511,57;11,000
512,15;81,000
512,73;-3,0000
513,31;80,000
513,89;29,000
514,47;5,0000
515,05;64,000
515,63;33,000
516,21;26,000
516,79;-2,0000
517,38;56,000
517,96;-54,000
518,54;117,00
519,12;45,000
519,70;-3,0000
520,28;28,000
520,86;32,000
521,44;67,000
522,02;-74,000
522,60;-23,000
523,18;70,000
523,76;-70,000
524,34;-91,000
524,92;48,000
525,50;10,0000
526,08;-137,00
526,66;-115,00
527,24;19,000
527,82;24,000
528,39;94,000
528,97;4,0000
529,55;-73,000
530,13;-33,000
530,71;99,000
531,29;59,000
531,87;-59,000
532,45;43,000
533,03;-11,000
533,61;71,000
534,19;15,000
534,77;77,000
535,35;63,000
535,93;42,000
536,51;54,000
537,08;292,00
537,66;-22,000
538,24;135,00
538,82;-34,000
539,40;28,000
539,98;24,000
540,56;63,000
541,14;-18,000
541,72;60,000
542,29;-30,000
542,87;22,000
543,45;146,00
544,03;-44,000
544,61;-38,000
545,19;-138,00
545,77;14,000
546,34;19,000
546,92;74,000
547,50;-60,000
548,08;123,00
548,66;168,00
549,23;-76,000
549,81;-6,0000
550,39;11,000
550,97;58,000
551,55;31,000
552,13;94,000
552,70;-67,000
553,28;13,000
553,86;-89,000
554,44;97,000
555,01;56,000
555,59;46,000
556,17;142,00
556,75;-3,0000
557,33;1,0000
557,90;45,000
558,48;-36,000
559,06;-85,000
559,64;-101,00
560,21;-41,000
560,79;35,000
561,37;11,000
561,95;-6,0000
562,52;7,0000
563,10;-30,000
563,68;26,000
564,25;-3,0000
564,83;33,000
565,41;8,0000
565,99;-42,000
566,56;-14,000
567,14;48,000
567,72;61,000
568,29;53,000
568,87;38,000
569,45;-19,000
570,02;-35,000
570,60;42,000
571,18;53,000
571,75;-58,000
572,33;-11,000
572,91;28,000
573,48;28,000
574,06;73,000
574,64;-12,000
575,21;89,000
575,79;-2,0000
576,37;99,000
576,94;132,00
577,52;1,0000
578,09;-87,000
578,67;-5,0000
579,25;57,000
579,82;1,0000
580,40;58,000
580,97;-31,000
581,55;-57,000
582,13;62,000
582,70;1,0000
583,28;52,000
583,85;-76,000
584,43;103,00
585,01;-73,000
585,58;-33,000
586,16;-7,0000
586,73;17,000
587,31;68,000
587,88;-28,000
588,46;-1,0000
589,03;115,00
589,61;2,0000
590,18;58,000
590,76;-11,000
591,34;49,000
591,91;47,000
592,49;-32,000
593,06;72,000
593,64;-6,0000
594,21;-68,000
594,79;1,0000
595,36;32,000
595,94;80,000
596,51;17,000
597,09;-10,0000
597,66;-18,000
598,24;80,000
598,81;30,000
599,38;71,000
599,96;28,000
600,53;115,00
601,11;49,000
601,68;32,000
602,26;-27,000
602,83;16,000
603,41;-20,000
603,98;55,000
604,56;7,0000
605,13;4,0000
605,70;67,000
606,28;-30,000
606,85;47,000
607,43;-34,000
608,00;7,0000
608,57;51,000
609,15;77,000
609,72;71,000
610,30;39,000
610,87;73,000
611,44;-50,000
612,02;52,000
612,59;30,000
613,16;-58,000
613,74;-18,000
614,31;19,000
614,89;-165,00
615,46;-44,000
616,03;-89,000
616,61;-23,000
617,18;-13,000
617,75;-47,000
618,33;103,00
618,90;-107,00
619,47;21,000
620,05;18,000
620,62;-73,000
621,19;-24,000
621,77;-54,000
622,34;-129,00
622,91;66,000
623,48;109,00
624,06;61,000
624,63;-15,000
625,20;87,000
625,78;-27,000
626,35;49,000
626,92;4,0000
627,49;-44,000
628,07;-13,000
628,64;-50,000
629,21;19,000
629,78;-15,000
630,36;-5,0000
630,93;28,000
631,50;77,000
632,07;-5,0000
632,65;95,000
633,22;-28,000
633,79;96,000
634,36;-16,000
634,93;13,000
635,51;53,000
636,08;35,000
636,65;33,000
637,22;-15,000
637,79;56,000
638,37;62,000
638,94;41,000
639,51;4,0000
640,08;29,000
640,65;20,000
641,22;71,000
641,80;38,000
642,37;46,000
642,94;9,0000
643,51;3,0000
644,08;48,000
644,65;28,000
645,22;24,000
645,80;45,000
646,37;-35,000
646,94;36,000
647,51;12,000
648,08;75,000
648,65;-32,000
649,22;-24,000
649,79;-94,000
650,36;47,000
650,93;-20,000
651,51;85,000
652,08;52,000
652,65;108,00
653,22;71,000
653,79;31,000
654,36;43,000
654,93;5,0000
655,50;72,000
656,07;70,000
656,64;29,000
657,21;66,000
657,78;84,000
658,35;15,000
658,92;130,00
659,49;-16,000
660,06;155,00
660,63;119,00
661,20;82,000
661,77;43,000
662,34;123,00
662,91;96,000
663,48;37,000
664,05;81,000
664,62;48,000
665,19;78,000
665,76;84,000
666,33;75,000
666,90;-28,000
667,47;65,000
668,04;62,000
668,61;96,000
669,18;138,00
669,75;204,00
670,32;147,00
670,89;55,000
671,46;126,00
672,03;11,000
672,60;116,00
673,17;101,00
673,74;-312,00
674,30;148,00
674,87;100,000
675,44;-11,000
676,01;81,000
676,58;-33,000
677,15;160,00
677,72;86,000
678,29;57,000
678,86;65,000
679,42;203,00
679,99;152,00
680,56;69,000
681,13;-5,0000
681,70;137,00
682,27;101,00
682,84;64,000
683,40;28,000
683,97;-19,000
684,54;52,000
685,11;18,000
685,68;70,000
686,25;43,000
686,81;55,000
687,38;25,000
687,95;21,000
688,52;31,000
689,09;0
689,65;12,000
690,22;65,000
690,79;61,000
691,36;35,000
691,92;69,000
692,49;34,000
693,06;-6,0000
693,63;-12,000
694,20;-65,000
694,76;82,000
695,33;22,000
695,90;-23,000
696,47;53,000
697,03;-74,000
697,60;101,00
698,17;17,000
698,73;39,000
699,30;115,00
699,87;-62,000
700,44;17,000
701,00;-102,00
701,57;40,000
702,14;79,000
702,70;5,0000
703,27;91,000
703,84;-10,0000
704,40;-12,000
704,97;12,000
705,54;-5,0000
706,10;110,00
706,67;-14,000
707,24;69,000
707,80;63,000
708,37;15,000
708,94;0
709,50;96,000
710,07;-4,0000
710,64;-34,000
711,20;49,000
711,77;27,000
712,33;36,000
712,90;-57,000
713,47;-17,000
714,03;55,000
714,60;147,00
715,16;-14,000
715,73;-34,000
716,30;135,00
716,86;42,000
717,43;8,0000
717,99;149,00
718,56;-4,0000
719,12;-14,000
719,69;57,000
720,26;-12,000
720,82;25,000
721,39;45,000
721,95;-82,000
722,52;75,000
723,08;53,000
723,65;84,000
724,21;27,000
724,78;-38,000
725,34;-15,000
725,91;98,000
726,47;84,000
727,04;-4,0000
727,60;85,000
728,17;37,000
728,73;-48,000
729,30;-22,000
729,86;36,000
730,43;19,000
730,99;-11,000
731,56;-47,000
732,12;-19,000
732,68;111,00
733,25;122,00
733,81;121,00
734,38;37,000
734,94;49,000
735,51;-6,0000
736,07;108,00
736,63;97,000
737,20;61,000
737,76;6,0000
738,33;64,000
738,89;35,000
739,46;18,000
740,02;-7,0000
740,58;32,000
741,15;7,0000
741,71;52,000
742,27;96,000
742,84;40,000
743,40;-55,000
743,97;-22,000
744,53;56,000
745,09;-77,000
745,66;-38,000
746,22;91,000
746,78;70,000
747,35;48,000
747,91;114,00
748,47;52,000
749,04;47,000
749,60;45,000
750,16;69,000
750,72;176,00
751,29;-53,000
751,85;146,00
752,41;79,000
752,98;61,000
753,54;-9,0000
754,10;-87,000
754,66;2,0000
755,23;6,0000
755,79;32,000
756,35;-63,000
756,91;118,00
757,48;93,000
758,04;-3,0000
758,60;37,000
759,16;89,000
759,73;87,000
760,29;68,000
760,85;-40,000
761,41;-37,000
761,98;51,000
762,54;-104,00
763,10;64,000
763,66;-29,000
764,22;18,000
764,79;25,000
765,35;-11,000
765,91;48,000
766,47;80,000
767,03;10,0000
767,59;-90,000
768,16;-59,000
768,72;70,000
769,28;81,000
769,84;234,00
770,40;3,0000
770,96;-9,0000
771,52;108,00
772,09;58,000
772,65;128,00
773,21;59,000
773,77;15,000
774,33;-21,000
774,89;112,00
775,45;82,000
776,01;50,000
776,57;-47,000
777,13;13,000
777,70;108,00
778,26;27,000
778,82;-65,000
779,38;5,0000
779,94;-59,000
780,50;24,000
781,06;-9,0000
781,62;26,000
782,18;-52,000
782,74;13,000
783,30;19,000
783,86;6,0000
784,42;10,0000
784,98;7,0000
785,54;-68,000
786,10;-14,000
786,66;59,000
787,22;-23,000
787,78;34,000
788,34;-29,000
788,90;54,000
789,46;-15,000
790,02;-45,000
790,58;72,000
791,14;105,00
791,70;-6,0000
792,26;-76,000
792,82;-3,0000
793,38;388,00
793,94;29,000
794,50;-51,000
795,06;-65,000
795,62;120,00
796,17;46,000
796,73;50,000
797,29;24,000
797,85;-22,000
798,41;10,0000
798,97;113,00
799,53;17,000
800,09;-41,000
800,65;-151,00
801,21;51,000
801,76;7,0000
802,32;3,0000
802,88;-55,000
803,44;22,000
804,00;64,000
804,56;2,0000
805,12;29,000
805,67;12,000
806,23;-18,000
806,79;-40,000
807,35;-18,000
807,91;54,000
808,46;-48,000
809,02;-14,000
809,58;-33,000
810,14;-63,000
810,70;70,000
811,26;-74,000
811,81;1,0000
812,37;70,000
812,93;69,000
813,49;141,00
814,04;-90,000
814,60;-79,000
815,16;88,000
815,72;38,000
816,27;4,0000
816,83;30,000
817,39;15,000
817,95;33,000
818,50;-38,000
819,06;22,000
819,62;42,000
820,18;-68,000
820,73;2,0000
821,29;-56,000
821,85;87,000
822,40;-40,000
822,96;79,000
823,52;-11,000
824,07;-149,00
824,63;-67,000
825,19;36,000
825,74;16,000
826,30;123,00
826,86;22,000
827,41;9,0000
827,97;-13,000
828,53;-8,0000
829,08;17,000
829,64;0
830,20;-3,0000
830,75;-24,000
831,31;64,000
831,86;17,000
832,42;36,000
832,98;113,00
833,53;-24,000
834,09;-20,000
834,64;-20,000
835,20;53,000
835,76;-10,0000
836,31;89,000
836,87;82,000
837,42;75,000
837,98;23,000
838,53;-67,000
839,09;-202,00
839,64;88,000
840,20;23,000
840,75;-21,000
841,31;2,0000
841,87;20,000
842,42;152,00
842,98;18,000
843,53;100,000
844,09;56,000
844,64;53,000
845,20;-33,000
845,75;-16,000
846,31;50,000
846,86;-37,000
847,41;3,0000
847,97;-6,0000
848,52;51,000
849,08;43,000
849,63;83,000
850,19;66,000
850,74;-6,0000
851,30;10,0000
851,85;83,000
852,41;-94,000
852,96;137,00
853,51;-101,00
854,07;-14,000
854,62;38,000
855,18;13,000
855,73;29,000
856,28;-17,000
856,84;-151,00
857,39;19,000
857,95;5,0000
858,50;37,000
859,05;44,000
859,61;10,0000
860,16;60,000
860,71;-22,000
861,27;-19,000
861,82;61,000
862,37;-41,000
862,93;124,00
863,48;-23,000
864,03;57,000
864,59;-46,000
865,14;-117,00
865,69;36,000
866,25;7,0000
866,80;24,000
867,35;-1,0000
867,90;91,000
868,46;13,000
869,01;-22,000
869,56;42,000
870,12;0
870,67;-66,000
871,22;-4,0000
871,77;140,00
872,33;59,000
872,88;41,000
873,43;55,000
873,98;2,0000
874,54;22,000
875,09;103,00
875,64;33,000
876,19;61,000
876,74;64,000
877,30;58,000
877,85;-23,000
878,40;17,000
878,95;2,0000
879,50;-2,0000
880,06;-33,000
880,61;-12,000
881,16;59,000
881,71;71,000
882,26;65,000
882,81;29,000
883,37;36,000
883,92;36,000
884,47;-66,000
885,02;-34,000
885,57;-8,0000
886,12;71,000
886,67;-60,000
887,22;52,000
887,78;101,00
888,33;5,0000
888,88;-36,000
889,43;42,000
889,98;-17,000
890,53;18,000
891,08;11,000
891,63;56,000
892,18;121,00
892,73;-115,00
893,28;-16,000
893,83;39,000
894,38;6,0000
894,93;63,000
895,48;71,000
896,03;69,000
896,59;58,000
897,14;-59,000
897,69;0
898,24;-14,000
898,79;-23,000
899,34;35,000
899,89;60,000
900,44;-11,000
900,99;-16,000
901,53;3,0000
902,08;55,000
902,63;-27,000
903,18;-10,0000
903,73;-25,000
904,28;-91,000
904,83;-56,000
905,38;61,000
905,93;39,000
906,48;-138,00
907,03;30,000
907,58;-76,000
908,13;-43,000
908,68;-1,0000
909,23;46,000
909,78;-5,0000
910,32;13,000
910,87;-12,000
911,42;-10,0000
911,97;-9,0000
912,52;64,000
913,07;90,000
913,62;-64,000
914,17;-27,000
914,71;-31,000
915,26;-12,000
915,81;39,000
916,36;-2,0000
916,91;17,000
917,46;-20,000
918,00;2,0000
918,55;84,000
919,10;22,000
919,65;176,00
920,20;-42,000
920,74;-3,0000
921,29;-107,00
921,84;-30,000
922,39;-16,000
922,94;11,000
923,48;11,000
924,03;27,000
924,58;-8,0000
925,13;-55,000
925,67;64,000
926,22;-3,0000
926,77;27,000
927,32;-15,000
927,86;95,000
928,41;-80,000
928,96;-26,000
929,50;30,000
930,05;95,000
930,60;55,000
931,15;-66,000
931,69;-54,000
932,24;42,000
932,79;66,000
933,33;-26,000
933,88;110,00
934,43;-58,000
934,97;-61,000
935,52;18,000
936,07;-61,000
936,61;13,000
937,16;36,000
937,71;-21,000
938,25;-55,000
938,80;19,000
939,34;35,000
939,89;57,000
940,44;-82,000
940,98;-39,000
941,53;-35,000
942,07;52,000
942,62;-95,000
943,17;-101,00
943,71;-61,000
944,26;20,000
944,80;47,000
945,35;-5,0000
945,89;54,000
946,44;-9,0000
946,99;46,000
947,53;99,000
948,08;115,00
948,62;25,000
949,17;77,000
949,71;61,000
950,26;-75,000
950,80;-17,000
951,35;36,000
951,89;-40,000
952,44;77,000
952,98;-33,000
953,53;-57,000
954,07;-13,000
954,62;-38,000
955,16;-42,000
955,71;-12,000
956,25;17,000
956,79;57,000
957,34;52,000
957,88;-58,000
958,43;39,000
958,97;6,0000
959,52;-98,000
960,06;-10,0000
960,60;6,0000
961,15;22,000
961,69;-15,000
962,24;-285,00
962,78;-78,000
963,32;-26,000
963,87;-60,000
964,41;123,00
964,96;-14,000
965,50;25,000
966,04;76,000
966,59;-118,00
967,13;-1,0000
967,67;-64,000
968,22;-31,000
968,76;-3,0000
969,30;-36,000
969,85;-8,0000
970,39;46,000
970,93;-41,000
971,47;-95,000
972,02;6,0000
972,56;-21,000
973,10;-121,00
973,65;-14,000
974,19;15,000
974,73;-28,000
975,27;17,000
975,82;-57,000
976,36;-51,000
976,90;-34,000
977,44;-66,000
977,99;38,000
978,53;-17,000
979,07;43,000
979,61;-18,000
980,16;-84,000
980,70;-86,000
981,24;43,000
981,78;-33,000
982,32;84,000
982,87;-139,00
983,41;-64,000
983,95;26,000
984,49;-31,000
985,03;24,000
985,57;-11,000
986,12;-37,000
986,66;99,000
987,20;48,000
987,74;83,000
988,28;-65,000
988,82;-111,00
989,36;-9,0000
989,91;-55,000
990,45;-3,0000
990,99;46,000
991,53;-26,000
992,07;51,000
992,61;-29,000
993,15;15,000
993,69;25,000
994,23;-60,000
994,77;80,000
995,31;-35,000
995,86;-13,000
996,40;201,00
996,94;34,000
997,48;-75,000
998,02;65,000
998,56;-54,000
999,10;-16,000
999,64;-66,000
1000,18;40,000
1000,72;83,000
1001,26;-62,000
1001,80;116,00
1002,34;45,000
1002,88;2,0000
1003,42;-49,000
1003,96;-33,000
1004,50;-21,000
1005,04;37,000
1005,58;34,000
1006,12;-25,000
1006,66;-35,000
1007,20;-4,0000
1007,73;55,000
1008,27;-19,000
1008,81;70,000
1009,35;-4,0000
1009,89;-53,000
1010,43;163,00
1010,97;-1,0000
1011,51;-30,000
1012,05;-101,00
1012,59;94,000
1013,13;12,000
1013,66;45,000
1014,20;-9,0000
1014,74;36,000
1015,28;31,000
1015,82;-20,000
1016,36;-5,0000
1016,90;-67,000
1017,43;-11,000
1017,97;108,00
1018,51;44,000
1019,05;39,000
1019,59;85,000
1020,13;122,00
1020,66;-137,00
1021,20;3,0000
1021,74;74,000
1022,28;-20,000
1022,81;-22,000
1023,35;0
1023,89;-10,0000
1024,43;29,000
1024,97;18,000
1025,50;-45,000
1026,04;50,000
1026,58;-27,000
1027,12;-164,00
1027,65;-16,000
1028,19;-39,000
1028,73;9,0000
1029,26;-48,000
1029,80;81,000
1030,34;102,00
1030,88;0
1031,41;-86,000
1031,95;68,000
1032,49;-1,0000
1033,02;-8,0000
1033,56;-46,000
1034,10;44,000
1034,63;73,000
1035,17;30,000
1035,71;-99,000
1036,24;28,000
1036,78;43,000
1037,32;-11,000
1037,85;-32,000
1038,39;97,000
1038,92;82,000
1039,46;-32,000
1040,00;61,000
1040,53;134,00
1041,07;36,000
1041,60;-72,000
1042,14;7,0000
1042,68;68,000
1043,21;-44,000
1043,75;-19,000
1044,28;3,0000
1044,82;-8,0000
1045,35;-81,000
1045,89;-11,000
1046,42;10,0000
1046,96;-68,000
1047,49;42,000
1048,03;-22,000
1048,57;-62,000
1049,10;-105,00
1049,64;-298,00
1050,17;32,000
1050,70;-52,000
1051,24;39,000
1051,77;-20,000
1052,31;-73,000
1052,84;-18,000
1053,38;-60,000
1053,91;94,000
1054,45;35,000
1054,98;-30,000
1055,52;36,000
1056,05;39,000
1056,59;-7,0000
1057,12;4,0000
1057,65;-137,00
1058,19;-15,000
1058,72;51,000
1059,26;25,000
1059,79;-56,000
1060,32;-5,0000
1060,86;4,0000
1061,39;59,000
1061,93;61,000
1062,46;-41,000
1062,99;17,000
1063,53;-22,000
1064,06;-19,000
1064,59;87,000
1065,13;37,000
1065,66;43,000
1066,19;19,000
1066,73;-58,000
1067,26;54,000
1067,79;21,000
1068,33;-24,000
1068,86;-73,000
1069,39;-49,000
1069,92;39,000
1070,46;95,000
1070,99;-81,000
1071,52;96,000
1072,05;41,000
1072,59;-36,000
1073,12;53,000
1073,65;-6,0000
1074,18;40,000
1074,72;9,0000
1075,25;87,000
1075,78;47,000
1076,31;47,000
1076,85;-4,0000
1077,38;-72,000
1077,91;25,000
1078,44;22,000
1078,97;-26,000
1079,51;-82,000
1080,04;16,000
1080,57;-20,000
1081,10;86,000
1081,63;14,000
1082,16;24,000
1082,70;34,000
1083,23;-23,000
1083,76;40,000
1084,29;100,000
1084,82;45,000
1085,35;-26,000
1085,88;-88,000
1086,41;-33,000
1086,94;-96,000
1087,48;53,000
1088,01;-16,000
1088,54;-72,000
1089,07;-5,0000
1089,60;-43,000
1090,13;18,000
1090,66;-39,000
1091,19;6,0000
1091,72;38,000
1092,25;14,000
1092,78;24,000
1093,31;-60,000
1093,84;106,00
1094,37;-5,0000
1094,90;-4,0000
1095,43;-16,000
1095,96;-4,0000
1096,49;27,000
1097,02;-27,000
1097,55;-49,000
1098,08;32,000
1098,61;33,000
1099,14;129,00
1099,67;16,000
1100,20;13,000
