M- 35 del, 5, sur
Integration time: 5000 ms
Average: 1 scans
Nr of pixels used for smoothing: 0
Data measured with spectrometer serial number: 0604021S1
Wave   ;Sample
[nm]   ;[counts]
173,70;-5,0000
174,30;50,000
174,90;31,000
175,50;110,00
176,10;82,000
176,70;48,000
177,30;108,00
177,90;-24,000
178,50;41,000
179,10;32,000
179,70;45,000
180,30;145,00
180,89;-24,000
181,49;-4,0000
182,09;-105,00
182,69;97,000
183,29;32,000
183,89;-21,000
184,49;80,000
185,09;90,000
185,69;-6,0000
186,29;2,0000
186,89;-101,00
187,48;51,000
188,08;-12,000
188,68;-23,000
189,28;-31,000
189,88;14,000
190,48;-40,000
191,08;-94,000
191,68;60,000
192,28;85,000
192,87;-28,000
193,47;39,000
194,07;24,000
194,67;-12,000
195,27;98,000
195,87;-96,000
196,47;-135,00
197,06;-50,000
197,66;5,0000
198,26;-30,000
198,86;-27,000
199,46;-43,000
200,06;-43,000
200,66;16,000
201,25;32,000
201,85;24,000
202,45;81,000
203,05;99,000
203,65;-15,000
204,24;68,000
204,84;-77,000
205,44;153,00
206,04;67,000
206,64;-13,000
207,24;-16,000
207,83;-59,000
208,43;-17,000
209,03;-72,000
209,63;-4,0000
210,22;117,00
210,82;58,000
211,42;74,000
212,02;-26,000
212,62;69,000
213,21;-15,000
213,81;-96,000
214,41;-34,000
215,01;42,000
215,60;41,000
216,20;-5,0000
216,80;21,000
217,40;75,000
218,00;-39,000
218,59;39,000
219,19;-66,000
219,79;-10,0000
220,38;29,000
220,98;3,0000
221,58;14,000
222,18;63,000
222,77;25,000
223,37;20,000
223,97;31,000
224,57;57,000
225,16;17,000
225,76;13,000
226,36;-16,000
226,95;-9,0000
227,55;152,00
228,15;-57,000
228,75;64,000
229,34;-70,000
229,94;50,000
230,54;-49,000
231,13;-8,0000
231,73;16,000
232,33;-10,0000
232,92;55,000
233,52;76,000
234,12;-32,000
234,71;121,00
235,31;35,000
235,91;23,000
236,50;87,000
237,10;45,000
237,70;-67,000
238,29;7,0000
238,89;35,000
239,49;11,000
240,08;-3,0000
240,68;24,000
241,28;84,000
241,87;-5,0000
242,47;-21,000
243,06;-1,0000
243,66;49,000
244,26;10,0000
244,85;-70,000
245,45;-36,000
246,05;52,000
246,64;-3,0000
247,24;-96,000
247,83;104,00
248,43;-55,000
249,03;-9,0000
249,62;20,000
250,22;71,000
250,81;-132,00
251,41;25,000
252,01;36,000
252,60;-57,000
253,20;34,000
253,79;132,00
254,39;32,000
254,98;22,000
255,58;84,000
256,18;71,000
256,77;135,00
257,37;-51,000
257,96;-27,000
258,56;23,000
259,15;153,00
259,75;99,000
260,34;23,000
260,94;-7,0000
261,53;-21,000
262,13;47,000
262,73;36,000
263,32;6,0000
263,92;78,000
264,51;-5,0000
265,11;50,000
265,70;58,000
266,30;55,000
266,89;-19,000
267,49;64,000
268,08;-15,000
268,68;13,000
269,27;18,000
269,87;52,000
270,46;-43,000
271,06;-1,0000
271,65;-59,000
272,25;12,000
272,84;50,000
273,44;23,000
274,03;-112,00
274,62;57,000
275,22;-32,000
275,81;7,0000
276,41;-29,000
277,00;68,000
277,60;16,000
278,19;76,000
278,79;9,0000
279,38;90,000
279,98;9,0000
280,57;-20,000
281,16;51,000
281,76;-7,0000
282,35;-34,000
282,95;5,0000
283,54;-49,000
284,14;1,0000
284,73;47,000
285,32;12,000
285,92;-14,000
286,51;-93,000
287,11;-3,0000
287,70;79,000
288,29;41,000
288,89;4,0000
289,48;33,000
290,08;28,000
290,67;30,000
291,26;-74,000
291,86;-66,000
292,45;-40,000
293,04;32,000
293,64;45,000
294,23;-1,0000
294,83;19,000
295,42;18,000
296,01;58,000
296,61;74,000
297,20;102,00
297,79;66,000
298,39;87,000
298,98;39,000
299,57;23,000
300,17;36,000
300,76;3,0000
301,35;56,000
301,95;24,000
302,54;47,000
303,13;72,000
303,73;40,000
304,32;-24,000
304,91;26,000
305,51;59,000
306,10;49,000
306,69;49,000
307,28;100,000
307,88;2,0000
308,47;-46,000
309,06;27,000
309,66;35,000
310,25;-9,0000
310,84;57,000
311,43;173,00
312,03;221,00
312,62;210,00
313,21;178,00
313,81;83,000
314,40;391,00
314,99;398,00
315,58;485,00
316,18;513,00
316,77;517,00
317,36;404,00
317,95;482,00
318,54;214,00
319,14;177,00
319,73;173,00
320,32;24,000
320,91;-23,000
321,51;71,000
322,10;71,000
322,69;90,000
323,28;25,000
323,87;28,000
324,47;25,000
325,06;-10,0000
325,65;137,00
326,24;118,00
326,83;91,000
327,43;189,00
328,02;201,00
328,61;199,00
329,20;168,00
329,79;140,00
330,39;267,00
330,98;298,00
331,57;206,00
332,16;238,00
332,75;272,00
333,34;388,00
333,93;337,00
334,53;444,00
335,12;631,00
335,71;1211,0
336,30;2460,0
336,89;3341,0
337,48;3215,0
338,07;3213,0
338,67;3063,0
339,26;2760,0
339,85;2277,0
340,44;1374,0
341,03;430,00
341,62;221,00
342,21;251,00
342,80;145,00
343,39;191,00
343,99;167,00
344,58;172,00
345,17;119,00
345,76;164,00
346,35;268,00
346,94;296,00
347,53;291,00
348,12;260,00
348,71;306,00
349,30;192,00
349,89;434,00
350,48;483,00
351,07;669,00
351,66;681,00
352,26;1023,0
352,85;1555,0
353,44;1918,0
354,03;2058,0
354,62;2020,0
355,21;2137,0
355,80;2451,0
356,39;3226,0
356,98;4465,0
357,57;4760,0
358,16;4697,0
358,75;4378,0
359,34;4149,0
359,93;3737,0
360,52;2963,0
361,11;1648,0
361,70;505,00
362,29;380,00
362,88;178,00
363,47;391,00
364,06;295,00
364,65;451,00
365,24;314,00
365,83;430,00
366,42;460,00
367,01;600,00
367,60;505,00
368,19;608,00
368,78;721,00
369,37;765,00
369,95;971,00
370,54;1040,0
371,13;1186,0
371,72;1109,0
372,31;1065,0
372,90;1207,0
373,49;1274,0
374,08;1601,0
374,67;1962,0
375,26;2411,0
375,85;2257,0
376,44;2146,0
377,03;2210,0
377,61;2102,0
378,20;2125,0
378,79;1778,0
379,38;1949,0
379,97;2679,0
380,56;2949,0
381,15;2841,0
381,74;2806,0
382,33;2720,0
382,91;2333,0
383,50;1849,0
384,09;1196,0
384,68;950,00
385,27;955,00
385,86;1064,0
386,45;1226,0
387,03;1274,0
387,62;1419,0
388,21;1306,0
388,80;1278,0
389,39;1285,0
389,98;1183,0
390,57;1283,0
391,15;1252,0
391,74;1143,0
392,33;998,00
392,92;975,00
393,51;1126,0
394,09;1155,0
394,68;1115,0
395,27;1032,0
395,86;898,00
396,45;1077,0
397,03;978,00
397,62;899,00
398,21;905,00
398,80;1212,0
399,39;1470,0
399,97;1611,0
400,56;1705,0
401,15;1485,0
401,74;1436,0
402,32;1364,0
402,91;1260,0
403,50;1030,0
404,09;1087,0
404,67;1293,0
405,26;1681,0
405,85;1748,0
406,44;1835,0
407,02;1822,0
407,61;1898,0
408,20;1541,0
408,78;1598,0
409,37;1324,0
409,96;1117,0
410,55;1095,0
411,13;1088,0
411,72;1045,0
412,31;1018,0
412,89;1109,0
413,48;1098,0
414,07;1287,0
414,65;1140,0
415,24;1221,0
415,83;1190,0
416,42;1282,0
417,00;1207,0
417,59;1172,0
418,18;1225,0
418,76;1228,0
419,35;1368,0
419,94;1602,0
420,52;1532,0
421,11;1485,0
421,69;1535,0
422,28;1392,0
422,87;1349,0
423,45;1421,0
424,04;1221,0
424,63;1236,0
425,21;1239,0
425,80;1383,0
426,38;1657,0
426,97;1578,0
427,56;1657,0
428,14;1459,0
428,73;1492,0
429,31;1384,0
429,90;1162,0
430,49;1045,0
431,07;740,00
431,66;751,00
432,24;774,00
432,83;883,00
433,42;982,00
434,00;1304,0
434,59;1163,0
435,17;1179,0
435,76;1345,0
436,34;1342,0
436,93;1313,0
437,51;1229,0
438,10;1035,0
438,69;832,00
439,27;752,00
439,86;585,00
440,44;756,00
441,03;782,00
441,61;736,00
442,20;786,00
442,78;801,00
443,37;714,00
443,95;836,00
444,54;906,00
445,12;854,00
445,71;680,00
446,29;730,00
446,88;657,00
447,46;857,00
448,05;807,00
448,63;827,00
449,22;640,00
449,80;763,00
450,39;595,00
450,97;591,00
451,56;599,00
452,14;465,00
452,72;431,00
453,31;522,00
453,89;508,00
454,48;479,00
455,06;581,00
455,65;461,00
456,23;515,00
456,81;690,00
457,40;583,00
457,98;675,00
458,57;628,00
459,15;676,00
459,74;593,00
460,32;635,00
460,90;690,00
461,49;682,00
462,07;782,00
462,66;878,00
463,24;898,00
463,82;940,00
464,41;958,00
464,99;992,00
465,57;1013,0
466,16;962,00
466,74;882,00
467,33;832,00
467,91;750,00
468,49;712,00
469,08;625,00
469,66;659,00
470,24;514,00
470,83;641,00
471,41;579,00
471,99;474,00
472,58;528,00
473,16;544,00
473,74;572,00
474,33;423,00
474,91;457,00
475,49;375,00
476,08;345,00
476,66;619,00
477,24;484,00
477,82;448,00
478,41;482,00
478,99;531,00
479,57;562,00
480,16;613,00
480,74;573,00
481,32;756,00
481,90;837,00
482,49;881,00
483,07;766,00
483,65;905,00
484,23;774,00
484,82;929,00
485,40;977,00
485,98;1041,0
486,56;992,00
487,15;1039,0
487,73;1191,0
488,31;1088,0
488,89;1249,0
489,47;1036,0
490,06;927,00
490,64;850,00
491,22;908,00
491,80;850,00
492,39;758,00
492,97;674,00
493,55;672,00
494,13;620,00
494,71;630,00
495,29;512,00
495,88;540,00
496,46;432,00
497,04;536,00
497,62;345,00
498,20;530,00
498,78;424,00
499,37;522,00
499,95;764,00
500,53;967,00
501,11;854,00
501,69;885,00
502,27;891,00
502,85;901,00
503,44;669,00
504,02;805,00
504,60;543,00
505,18;515,00
505,76;498,00
506,34;398,00
506,92;316,00
507,50;391,00
508,08;382,00
508,67;297,00
509,25;315,00
509,83;239,00
510,41;265,00
510,99;237,00
511,57;338,00
512,15;360,00
512,73;343,00
513,31;309,00
513,89;282,00
514,47;299,00
515,05;291,00
515,63;312,00
516,21;337,00
516,79;315,00
517,38;395,00
517,96;280,00
518,54;446,00
519,12;398,00
519,70;366,00
520,28;309,00
520,86;351,00
521,44;347,00
522,02;147,00
522,60;233,00
523,18;172,00
523,76;257,00
524,34;305,00
524,92;221,00
525,50;236,00
526,08;183,00
526,66;191,00
527,24;234,00
527,82;255,00
528,39;355,00
528,97;274,00
529,55;236,00
530,13;216,00
530,71;353,00
531,29;246,00
531,87;320,00
532,45;280,00
533,03;320,00
533,61;173,00
534,19;324,00
534,77;203,00
535,35;250,00
535,93;370,00
536,51;284,00
537,08;12,000
537,66;199,00
538,24;345,00
538,82;283,00
539,40;259,00
539,98;291,00
540,56;257,00
541,14;260,00
541,72;261,00
542,29;286,00
542,87;320,00
543,45;255,00
544,03;326,00
544,61;351,00
545,19;382,00
545,77;319,00
546,34;350,00
546,92;350,00
547,50;248,00
548,08;322,00
548,66;253,00
549,23;326,00
549,81;202,00
550,39;421,00
550,97;238,00
551,55;261,00
552,13;260,00
552,70;362,00
553,28;374,00
553,86;375,00
554,44;436,00
555,01;344,00
555,59;272,00
556,17;383,00
556,75;307,00
557,33;295,00
557,90;363,00
558,48;327,00
559,06;230,00
559,64;287,00
560,21;346,00
560,79;269,00
561,37;337,00
561,95;347,00
562,52;335,00
563,10;226,00
563,68;253,00
564,25;326,00
564,83;274,00
565,41;296,00
565,99;340,00
566,56;380,00
567,14;338,00
567,72;551,00
568,29;553,00
568,87;529,00
569,45;535,00
570,02;583,00
570,60;436,00
571,18;544,00
571,75;376,00
572,33;426,00
572,91;417,00
573,48;265,00
574,06;303,00
574,64;263,00
575,21;468,00
575,79;307,00
576,37;350,00
576,94;263,00
577,52;277,00
578,09;315,00
578,67;285,00
579,25;305,00
579,82;197,00
580,40;383,00
580,97;218,00
581,55;253,00
582,13;326,00
582,70;342,00
583,28;257,00
583,85;297,00
584,43;212,00
585,01;253,00
585,58;308,00
586,16;351,00
586,73;313,00
587,31;238,00
587,88;243,00
588,46;318,00
589,03;321,00
589,61;355,00
590,18;423,00
590,76;255,00
591,34;302,00
591,91;259,00
592,49;408,00
593,06;349,00
593,64;372,00
594,21;401,00
594,79;325,00
595,36;466,00
595,94;326,00
596,51;450,00
597,09;393,00
597,66;221,00
598,24;350,00
598,81;330,00
599,38;151,00
599,96;320,00
600,53;330,00
601,11;260,00
601,68;246,00
602,26;228,00
602,83;364,00
603,41;301,00
603,98;244,00
604,56;358,00
605,13;236,00
605,70;202,00
606,28;229,00
606,85;240,00
607,43;234,00
608,00;258,00
608,57;219,00
609,15;217,00
609,72;261,00
610,30;191,00
610,87;282,00
611,44;217,00
612,02;232,00
612,59;110,00
613,16;180,00
613,74;384,00
614,31;268,00
614,89;160,00
615,46;208,00
616,03;199,00
616,61;328,00
617,18;296,00
617,75;324,00
618,33;216,00
618,90;233,00
619,47;300,00
620,05;208,00
620,62;264,00
621,19;219,00
621,77;225,00
622,34;181,00
622,91;282,00
623,48;249,00
624,06;172,00
624,63;294,00
625,20;221,00
625,78;179,00
626,35;224,00
626,92;288,00
627,49;216,00
628,07;203,00
628,64;151,00
629,21;187,00
629,78;187,00
630,36;294,00
630,93;253,00
631,50;222,00
632,07;327,00
632,65;219,00
633,22;202,00
633,79;245,00
634,36;118,00
634,93;174,00
635,51;196,00
636,08;216,00
636,65;236,00
637,22;159,00
637,79;290,00
638,37;251,00
638,94;255,00
639,51;222,00
640,08;213,00
640,65;207,00
641,22;189,00
641,80;346,00
642,37;251,00
642,94;212,00
643,51;389,00
644,08;247,00
644,65;265,00
645,22;285,00
645,80;332,00
646,37;237,00
646,94;225,00
647,51;366,00
648,08;283,00
648,65;420,00
649,22;455,00
649,79;424,00
650,36;458,00
650,93;319,00
651,51;59,000
652,08;398,00
652,65;443,00
653,22;522,00
653,79;661,00
654,36;724,00
654,93;869,00
655,50;1091,0
656,07;1531,0
656,64;1736,0
657,21;1826,0
657,78;2157,0
658,35;2076,0
658,92;1819,0
659,49;1777,0
660,06;1525,0
660,63;1384,0
661,20;1396,0
661,77;1130,0
662,34;1067,0
662,91;845,00
663,48;830,00
664,05;736,00
664,62;653,00
665,19;474,00
665,76;590,00
666,33;340,00
666,90;420,00
667,47;397,00
668,04;209,00
668,61;331,00
669,18;387,00
669,75;353,00
670,32;380,00
670,89;430,00
671,46;241,00
672,03;323,00
672,60;345,00
673,17;305,00
673,74;379,00
674,30;194,00
674,87;168,00
675,44;258,00
676,01;264,00
676,58;227,00
677,15;153,00
677,72;133,00
678,29;293,00
678,86;194,00
679,42;229,00
679,99;234,00
680,56;95,000
681,13;135,00
681,70;156,00
682,27;211,00
682,84;169,00
683,40;190,00
683,97;101,00
684,54;120,00
685,11;82,000
685,68;151,00
686,25;67,000
686,81;72,000
687,38;-12,000
687,95;173,00
688,52;166,00
689,09;165,00
689,65;167,00
690,22;86,000
690,79;212,00
691,36;241,00
691,92;95,000
692,49;95,000
693,06;67,000
693,63;211,00
694,20;200,00
694,76;232,00
695,33;52,000
695,90;160,00
696,47;217,00
697,03;220,00
697,60;167,00
698,17;215,00
698,73;201,00
699,30;192,00
699,87;171,00
700,44;122,00
701,00;166,00
701,57;134,00
702,14;142,00
702,70;200,00
703,27;178,00
703,84;182,00
704,40;149,00
704,97;63,000
705,54;277,00
706,10;215,00
706,67;55,000
707,24;48,000
707,80;83,000
708,37;162,00
708,94;181,00
709,50;57,000
710,07;171,00
710,64;24,000
711,20;50,000
711,77;56,000
712,33;98,000
712,90;166,00
713,47;162,00
714,03;157,00
714,60;198,00
715,16;172,00
715,73;54,000
716,30;277,00
716,86;191,00
717,43;182,00
717,99;193,00
718,56;135,00
719,12;124,00
719,69;90,000
720,26;164,00
720,82;34,000
721,39;119,00
721,95;129,00
722,52;55,000
723,08;98,000
723,65;241,00
724,21;169,00
724,78;135,00
725,34;76,000
725,91;227,00
726,47;11,000
727,04;100,000
727,60;176,00
728,17;113,00
728,73;-24,000
729,30;168,00
729,86;114,00
730,43;116,00
730,99;66,000
731,56;123,00
732,12;210,00
732,68;83,000
733,25;124,00
733,81;48,000
734,38;143,00
734,94;132,00
735,51;182,00
736,07;159,00
736,63;119,00
737,20;124,00
737,76;32,000
738,33;97,000
738,89;76,000
739,46;58,000
740,02;67,000
740,58;81,000
741,15;-12,000
741,71;98,000
742,27;102,00
742,84;253,00
743,40;278,00
743,97;300,00
744,53;292,00
745,09;350,00
745,66;200,00
746,22;300,00
746,78;238,00
747,35;404,00
747,91;376,00
748,47;446,00
749,04;274,00
749,60;320,00
750,16;302,00
750,72;220,00
751,29;161,00
751,85;66,000
752,41;169,00
752,98;53,000
753,54;103,00
754,10;105,00
754,66;-9,0000
755,23;163,00
755,79;102,00
756,35;114,00
756,91;73,000
757,48;120,00
758,04;126,00
758,60;42,000
759,16;53,000
759,73;49,000
760,29;64,000
760,85;45,000
761,41;181,00
761,98;14,000
762,54;163,00
763,10;156,00
763,66;70,000
764,22;117,00
764,79;-34,000
765,35;65,000
765,91;18,000
766,47;31,000
767,03;91,000
767,59;3,0000
768,16;-38,000
768,72;81,000
769,28;30,000
769,84;141,00
770,40;-20,000
770,96;119,00
771,52;84,000
772,09;158,00
772,65;146,00
773,21;105,00
773,77;32,000
774,33;51,000
774,89;112,00
775,45;38,000
776,01;102,00
776,57;125,00
777,13;460,00
777,70;495,00
778,26;410,00
778,82;334,00
779,38;446,00
779,94;482,00
780,50;548,00
781,06;308,00
781,62;164,00
782,18;75,000
782,74;140,00
783,30;-49,000
783,86;-8,0000
784,42;9,0000
784,98;59,000
785,54;32,000
786,10;15,000
786,66;15,000
787,22;-23,000
787,78;104,00
788,34;120,00
788,90;140,00
789,46;118,00
790,02;174,00
790,58;166,00
791,14;54,000
791,70;36,000
792,26;51,000
792,82;98,000
793,38;117,00
793,94;40,000
794,50;49,000
795,06;18,000
795,62;92,000
796,17;49,000
796,73;86,000
797,29;125,00
797,85;154,00
798,41;71,000
798,97;49,000
799,53;89,000
800,09;25,000
800,65;59,000
801,21;-22,000
801,76;38,000
802,32;8,0000
802,88;43,000
803,44;-32,000
804,00;158,00
804,56;72,000
805,12;39,000
805,67;-60,000
806,23;141,00
806,79;29,000
807,35;115,00
807,91;107,00
808,46;-50,000
809,02;-7,0000
809,58;-16,000
810,14;-74,000
810,70;-47,000
811,26;90,000
811,81;-33,000
812,37;-32,000
812,93;1,0000
813,49;41,000
814,04;-34,000
814,60;41,000
815,16;63,000
815,72;83,000
816,27;-2,0000
816,83;93,000
817,39;21,000
817,95;10,0000
818,50;30,000
819,06;101,00
819,62;195,00
820,18;60,000
820,73;71,000
821,29;137,00
821,85;312,00
822,40;373,00
822,96;239,00
823,52;270,00
824,07;218,00
824,63;259,00
825,19;225,00
825,74;242,00
826,30;181,00
826,86;27,000
827,41;22,000
827,97;34,000
828,53;-8,0000
829,08;128,00
829,64;65,000
830,20;70,000
830,75;86,000
831,31;43,000
831,86;115,00
832,42;44,000
832,98;18,000
833,53;28,000
834,09;60,000
834,64;84,000
835,20;70,000
835,76;34,000
836,31;13,000
836,87;22,000
837,42;-30,000
837,98;86,000
838,53;40,000
839,09;76,000
839,64;33,000
840,20;53,000
840,75;31,000
841,31;-51,000
841,87;78,000
842,42;77,000
842,98;87,000
843,53;94,000
844,09;33,000
844,64;134,00
845,20;138,00
845,75;106,00
846,31;149,00
846,86;148,00
847,41;115,00
847,97;170,00
848,52;30,000
849,08;-31,000
849,63;25,000
850,19;-41,000
850,74;-52,000
851,30;37,000
851,85;35,000
852,41;181,00
852,96;-13,000
853,51;21,000
854,07;-20,000
854,62;14,000
855,18;-77,000
855,73;74,000
856,28;40,000
856,84;14,000
857,39;-11,000
857,95;-45,000
858,50;-42,000
859,05;91,000
859,61;90,000
860,16;-7,0000
860,71;85,000
861,27;21,000
861,82;65,000
862,37;102,00
862,93;39,000
863,48;181,00
864,03;27,000
864,59;157,00
865,14;135,00
865,69;75,000
866,25;142,00
866,80;76,000
867,35;105,00
867,90;96,000
868,46;222,00
869,01;252,00
869,56;181,00
870,12;297,00
870,67;255,00
871,22;224,00
871,77;134,00
872,33;200,00
872,88;19,000
873,43;174,00
873,98;165,00
874,54;77,000
875,09;15,000
875,64;108,00
876,19;3,0000
876,74;-3,0000
877,30;65,000
877,85;1,0000
878,40;-50,000
878,95;24,000
879,50;-14,000
880,06;21,000
880,61;-67,000
881,16;74,000
881,71;18,000
882,26;53,000
882,81;11,000
883,37;-35,000
883,92;58,000
884,47;-1,0000
885,02;-31,000
885,57;-2,0000
886,12;37,000
886,67;-4,0000
887,22;-55,000
887,78;-26,000
888,33;-79,000
888,88;56,000
889,43;82,000
889,98;106,00
890,53;-127,00
891,08;36,000
891,63;59,000
892,18;-105,00
892,73;24,000
893,28;35,000
893,83;-73,000
894,38;53,000
894,93;78,000
895,48;16,000
896,03;66,000
896,59;122,00
897,14;-1,0000
897,69;-32,000
898,24;-21,000
898,79;81,000
899,34;48,000
899,89;79,000
900,44;64,000
900,99;-34,000
901,53;63,000
902,08;77,000
902,63;69,000
903,18;143,00
903,73;80,000
904,28;-21,000
904,83;75,000
905,38;-67,000
905,93;153,00
906,48;64,000
907,03;79,000
907,58;31,000
908,13;55,000
908,68;80,000
909,23;4,0000
909,78;26,000
910,32;78,000
910,87;-18,000
911,42;60,000
911,97;-16,000
912,52;6,0000
913,07;25,000
913,62;97,000
914,17;81,000
914,71;91,000
915,26;37,000
915,81;32,000
916,36;105,00
916,91;-20,000
917,46;55,000
918,00;47,000
918,55;-73,000
919,10;-8,0000
919,65;91,000
920,20;-82,000
920,74;25,000
921,29;85,000
921,84;64,000
922,39;92,000
922,94;92,000
923,48;-11,000
924,03;-58,000
924,58;8,0000
925,13;-2,0000
925,67;101,00
926,22;69,000
926,77;83,000
927,32;-73,000
927,86;27,000
928,41;52,000
928,96;120,00
929,50;6,0000
930,05;34,000
930,60;79,000
931,15;23,000
931,69;-76,000
932,24;-48,000
932,79;-72,000
933,33;43,000
933,88;9,0000
934,43;3,0000
934,97;-45,000
935,52;80,000
936,07;-16,000
936,61;-1,0000
937,16;116,00
937,71;60,000
938,25;63,000
938,80;115,00
939,34;48,000
939,89;25,000
940,44;24,000
940,98;96,000
941,53;66,000
942,07;42,000
942,62;10,0000
943,17;-11,000
943,71;60,000
944,26;1,0000
944,80;-3,0000
945,35;-83,000
945,89;120,00
946,44;75,000
946,99;-65,000
947,53;39,000
948,08;27,000
948,62;-85,000
949,17;55,000
949,71;36,000
950,26;-2,0000
950,80;7,0000
951,35;99,000
951,89;68,000
952,44;-19,000
952,98;43,000
953,53;-32,000
954,07;2,0000
954,62;-22,000
955,16;57,000
955,71;43,000
956,25;-11,000
956,79;45,000
957,34;-54,000
957,88;141,00
958,43;-5,0000
958,97;35,000
959,52;174,00
960,06;25,000
960,60;-67,000
961,15;-67,000
961,69;9,0000
962,24;108,00
962,78;67,000
963,32;21,000
963,87;-13,000
964,41;15,000
964,96;-32,000
965,50;17,000
966,04;18,000
966,59;71,000
967,13;50,000
967,67;60,000
968,22;8,0000
968,76;0
969,30;-41,000
969,85;-42,000
970,39;16,000
970,93;5,0000
971,47;33,000
972,02;75,000
972,56;75,000
973,10;86,000
973,65;76,000
974,19;79,000
974,73;110,00
975,27;2,0000
975,82;-37,000
976,36;38,000
976,90;58,000
977,44;-14,000
977,99;90,000
978,53;-6,0000
979,07;57,000
979,61;35,000
980,16;18,000
980,70;25,000
981,24;-31,000
981,78;61,000
982,32;135,00
982,87;21,000
983,41;-56,000
983,95;-162,00
984,49;52,000
985,03;3,0000
985,57;99,000
986,12;29,000
986,66;14,000
987,20;48,000
987,74;137,00
988,28;-1,0000
988,82;-36,000
989,36;-35,000
989,91;-66,000
990,45;84,000
990,99;23,000
991,53;34,000
992,07;25,000
992,61;-1,0000
993,15;-39,000
993,69;47,000
994,23;15,000
994,77;25,000
995,31;-9,0000
995,86;32,000
996,40;-5,0000
996,94;62,000
997,48;-30,000
998,02;-4,0000
998,56;32,000
999,10;-32,000
999,64;-1,0000
1000,18;-16,000
1000,72;-88,000
1001,26;-69,000
1001,80;61,000
1002,34;28,000
1002,88;55,000
1003,42;-4,0000
1003,96;23,000
1004,50;39,000
1005,04;0
1005,58;9,0000
1006,12;103,00
1006,66;5,0000
1007,20;45,000
1007,73;81,000
1008,27;61,000
1008,81;-13,000
1009,35;26,000
1009,89;34,000
1010,43;36,000
1010,97;20,000
1011,51;4,0000
1012,05;-8,0000
1012,59;10,0000
1013,13;56,000
1013,66;92,000
1014,20;10,0000
1014,74;11,000
1015,28;-11,000
1015,82;80,000
1016,36;3,0000
1016,90;-81,000
1017,43;-41,000
1017,97;90,000
1018,51;-53,000
1019,05;-22,000
1019,59;-10,0000
1020,13;53,000
1020,66;-68,000
1021,20;27,000
1021,74;-24,000
1022,28;-29,000
1022,81;21,000
1023,35;35,000
1023,89;63,000
1024,43;50,000
1024,97;2,0000
1025,50;-50,000
1026,04;-56,000
1026,58;-88,000
1027,12;100,000
1027,65;-12,000
1028,19;22,000
1028,73;-20,000
1029,26;68,000
1029,80;41,000
1030,34;-62,000
1030,88;-6,0000
1031,41;-8,0000
1031,95;54,000
1032,49;10,0000
1033,02;70,000
1033,56;2,0000
1034,10;101,00
1034,63;0
1035,17;-13,000
1035,71;79,000
1036,24;38,000
1036,78;25,000
1037,32;7,0000
1037,85;-93,000
1038,39;26,000
1038,92;-12,000
1039,46;7,0000
1040,00;-19,000
1040,53;-14,000
1041,07;111,00
1041,60;-25,000
1042,14;52,000
1042,68;34,000
1043,21;-61,000
1043,75;-3,0000
1044,28;-16,000
1044,82;59,000
1045,35;13,000
1045,89;15,000
1046,42;33,000
1046,96;46,000
1047,49;-56,000
1048,03;85,000
1048,57;-57,000
1049,10;-17,000
1049,64;2,0000
1050,17;-63,000
1050,70;47,000
1051,24;-25,000
1051,77;-4,0000
1052,31;-51,000
1052,84;-27,000
1053,38;16,000
1053,91;18,000
1054,45;86,000
1054,98;-29,000
1055,52;48,000
1056,05;-70,000
1056,59;45,000
1057,12;23,000
1057,65;-22,000
1058,19;44,000
1058,72;-33,000
1059,26;3,0000
1059,79;-60,000
1060,32;28,000
1060,86;-6,0000
1061,39;20,000
1061,93;-45,000
1062,46;90,000
1062,99;31,000
1063,53;-106,00
1064,06;-15,000
1064,59;-39,000
1065,13;22,000
1065,66;-80,000
1066,19;-35,000
1066,73;-26,000
1067,26;0
1067,79;37,000
1068,33;-94,000
1068,86;38,000
1069,39;-30,000
1069,92;42,000
1070,46;7,0000
1070,99;-13,000
1071,52;64,000
1072,05;-71,000
1072,59;-76,000
1073,12;77,000
1073,65;19,000
1074,18;79,000
1074,72;-150,00
1075,25;-26,000
1075,78;52,000
1076,31;30,000
1076,85;-22,000
1077,38;15,000
1077,91;-11,000
1078,44;13,000
1078,97;104,00
1079,51;122,00
1080,04;67,000
1080,57;-61,000
1081,10;-40,000
1081,63;58,000
1082,16;116,00
1082,70;-29,000
1083,23;106,00
1083,76;74,000
1084,29;-13,000
1084,82;24,000
1085,35;-39,000
1085,88;27,000
1086,41;-55,000
1086,94;-5,0000
1087,48;76,000
1088,01;61,000
1088,54;-19,000
1089,07;101,00
1089,60;-70,000
1090,13;17,000
1090,66;-8,0000
1091,19;-6,0000
1091,72;14,000
1092,25;21,000
1092,78;12,000
1093,31;10,0000
1093,84;42,000
1094,37;53,000
1094,90;-30,000
1095,43;5,0000
1095,96;35,000
1096,49;-18,000
1097,02;29,000
1097,55;73,000
1098,08;-55,000
1098,61;-60,000
1099,14;2,0000
1099,67;36,000
1100,20;-73,000
