M- 24 del, 3
Integration time: 5000 ms
Average: 1 scans
Nr of pixels used for smoothing: 0
Data measured with spectrometer serial number: 0604021S1
Wave   ;Sample
[nm]   ;[counts]
173,70;50,000
174,30;2,0000
174,90;-40,000
175,50;2,0000
176,10;72,000
176,70;64,000
177,30;-46,000
177,90;55,000
178,50;17,000
179,10;57,000
179,70;7,0000
180,30;33,000
180,89;-8,0000
181,49;20,000
182,09;19,000
182,69;-52,000
183,29;24,000
183,89;24,000
184,49;21,000
185,09;38,000
185,69;77,000
186,29;48,000
186,89;30,000
187,48;-119,00
188,08;-42,000
188,68;-25,000
189,28;-33,000
189,88;2,0000
190,48;-57,000
191,08;61,000
191,68;13,000
192,28;71,000
192,87;-65,000
193,47;-19,000
194,07;-22,000
194,67;-69,000
195,27;-60,000
195,87;-38,000
196,47;-8,0000
197,06;-70,000
197,66;-105,00
198,26;31,000
198,86;-41,000
199,46;13,000
200,06;38,000
200,66;30,000
201,25;-114,00
201,85;98,000
202,45;-46,000
203,05;4,0000
203,65;-37,000
204,24;-21,000
204,84;-83,000
205,44;-125,00
206,04;-67,000
206,64;-41,000
207,24;-2,0000
207,83;-11,000
208,43;46,000
209,03;-3,0000
209,63;27,000
210,22;88,000
210,82;-54,000
211,42;12,000
212,02;-110,00
212,62;-44,000
213,21;-43,000
213,81;8,0000
214,41;-65,000
215,01;34,000
215,60;26,000
216,20;-1,0000
216,80;-27,000
217,40;13,000
218,00;144,00
218,59;-96,000
219,19;-35,000
219,79;61,000
220,38;-45,000
220,98;-92,000
221,58;49,000
222,18;55,000
222,77;64,000
223,37;2,0000
223,97;-42,000
224,57;-7,0000
225,16;-11,000
225,76;51,000
226,36;-77,000
226,95;14,000
227,55;-24,000
228,15;31,000
228,75;43,000
229,34;-199,00
229,94;113,00
230,54;114,00
231,13;-42,000
231,73;11,000
232,33;-55,000
232,92;17,000
233,52;33,000
234,12;-23,000
234,71;94,000
235,31;36,000
235,91;60,000
236,50;-5,0000
237,10;57,000
237,70;-110,00
238,29;29,000
238,89;49,000
239,49;-14,000
240,08;1,0000
240,68;-5,0000
241,28;13,000
241,87;-55,000
242,47;59,000
243,06;14,000
243,66;-42,000
244,26;16,000
244,85;23,000
245,45;-8,0000
246,05;77,000
246,64;53,000
247,24;-101,00
247,83;89,000
248,43;86,000
249,03;-20,000
249,62;-31,000
250,22;-50,000
250,81;28,000
251,41;-43,000
252,01;-63,000
252,60;-12,000
253,20;86,000
253,79;32,000
254,39;-33,000
254,98;4,0000
255,58;16,000
256,18;42,000
256,77;12,000
257,37;28,000
257,96;28,000
258,56;4,0000
259,15;63,000
259,75;-19,000
260,34;-49,000
260,94;38,000
261,53;37,000
262,13;-3,0000
262,73;44,000
263,32;-2,0000
263,92;-104,00
264,51;4,0000
265,11;30,000
265,70;-78,000
266,30;103,00
266,89;-19,000
267,49;-8,0000
268,08;19,000
268,68;-18,000
269,27;34,000
269,87;41,000
270,46;20,000
271,06;-6,0000
271,65;40,000
272,25;-28,000
272,84;29,000
273,44;9,0000
274,03;45,000
274,62;6,0000
275,22;20,000
275,81;-53,000
276,41;6,0000
277,00;-28,000
277,60;-29,000
278,19;-114,00
278,79;21,000
279,38;-72,000
279,98;-95,000
280,57;36,000
281,16;-8,0000
281,76;-101,00
282,35;54,000
282,95;-51,000
283,54;32,000
284,14;5,0000
284,73;-41,000
285,32;-32,000
285,92;26,000
286,51;-32,000
287,11;-106,00
287,70;9,0000
288,29;-9,0000
288,89;48,000
289,48;32,000
290,08;-43,000
290,67;63,000
291,26;-48,000
291,86;41,000
292,45;15,000
293,04;-17,000
293,64;49,000
294,23;52,000
294,83;16,000
295,42;-31,000
296,01;-1,0000
296,61;18,000
297,20;-29,000
297,79;64,000
298,39;-4,0000
298,98;155,00
299,57;26,000
300,17;55,000
300,76;-5,0000
301,35;-53,000
301,95;-61,000
302,54;40,000
303,13;89,000
303,73;-19,000
304,32;1,0000
304,91;15,000
305,51;30,000
306,10;-58,000
306,69;-30,000
307,28;78,000
307,88;30,000
308,47;-56,000
309,06;-22,000
309,66;5,0000
310,25;-30,000
310,84;102,00
311,43;-10,0000
312,03;143,00
312,62;181,00
313,21;274,00
313,81;249,00
314,40;488,00
314,99;715,00
315,58;1053,0
316,18;1104,0
316,77;1076,0
317,36;1061,0
317,95;933,00
318,54;820,00
319,14;681,00
319,73;135,00
320,32;66,000
320,91;11,000
321,51;2,0000
322,10;-7,0000
322,69;46,000
323,28;50,000
323,87;-42,000
324,47;42,000
325,06;47,000
325,65;-6,0000
326,24;63,000
326,83;69,000
327,43;47,000
328,02;134,00
328,61;178,00
329,20;99,000
329,79;42,000
330,39;-67,000
330,98;101,00
331,57;140,00
332,16;165,00
332,75;134,00
333,34;254,00
333,93;416,00
334,53;419,00
335,12;823,00
335,71;2198,0
336,30;5480,0
336,89;8473,0
337,48;8646,0
338,07;8790,0
338,67;8672,0
339,26;8364,0
339,85;7231,0
340,44;4645,0
341,03;822,00
341,62;153,00
342,21;195,00
342,80;138,00
343,39;148,00
343,99;4,0000
344,58;-10,0000
345,17;90,000
345,76;9,0000
346,35;37,000
346,94;33,000
347,53;46,000
348,12;191,00
348,71;116,00
349,30;184,00
349,89;312,00
350,48;281,00
351,07;455,00
351,66;553,00
352,26;1110,0
352,85;2321,0
353,44;3112,0
354,03;3125,0
354,62;3310,0
355,21;3535,0
355,80;4590,0
356,39;6646,0
356,98;10365
357,57;11728
358,16;11815
358,75;11556
359,34;11352
359,93;10877
360,52;8891,0
361,11;4810,0
361,70;505,00
362,29;164,00
362,88;181,00
363,47;71,000
364,06;82,000
364,65;126,00
365,24;131,00
365,83;154,00
366,42;222,00
367,01;400,00
367,60;234,00
368,19;376,00
368,78;337,00
369,37;296,00
369,95;765,00
370,54;922,00
371,13;1054,0
371,72;1115,0
372,31;1206,0
372,90;1283,0
373,49;1416,0
374,08;1985,0
374,67;3028,0
375,26;3926,0
375,85;4252,0
376,44;4364,0
377,03;4185,0
377,61;4119,0
378,20;3959,0
378,79;3692,0
379,38;3629,0
379,97;5997,0
380,56;6558,0
381,15;6770,0
381,74;6578,0
382,33;6346,0
382,91;5573,0
383,50;4289,0
384,09;1421,0
384,68;205,00
385,27;178,00
385,86;186,00
386,45;157,00
387,03;179,00
387,62;206,00
388,21;152,00
388,80;353,00
389,39;324,00
389,98;309,00
390,57;313,00
391,15;296,00
391,74;320,00
392,33;291,00
392,92;490,00
393,51;794,00
394,09;886,00
394,68;823,00
395,27;789,00
395,86;888,00
396,45;890,00
397,03;874,00
397,62;689,00
398,21;826,00
398,80;1407,0
399,39;2267,0
399,97;2533,0
400,56;2483,0
401,15;2479,0
401,74;2393,0
402,32;2214,0
402,91;1661,0
403,50;902,00
404,09;977,00
404,67;1382,0
405,26;2514,0
405,85;2709,0
406,44;2895,0
407,02;3027,0
407,61;2735,0
408,20;2532,0
408,78;2288,0
409,37;1267,0
409,96;617,00
410,55;468,00
411,13;357,00
411,72;389,00
412,31;267,00
412,89;312,00
413,48;364,00
414,07;317,00
414,65;369,00
415,24;268,00
415,83;293,00
416,42;319,00
417,00;273,00
417,59;165,00
418,18;222,00
418,76;483,00
419,35;738,00
419,94;782,00
420,52;906,00
421,11;906,00
421,69;890,00
422,28;932,00
422,87;592,00
423,45;598,00
424,04;123,00
424,63;434,00
425,21;467,00
425,80;832,00
426,38;1357,0
426,97;1449,0
427,56;1569,0
428,14;1722,0
428,73;1502,0
429,31;1378,0
429,90;1051,0
430,49;490,00
431,07;292,00
431,66;338,00
432,24;361,00
432,83;432,00
433,42;660,00
434,00;1023,0
434,59;1033,0
435,17;1267,0
435,76;1136,0
436,34;1146,0
436,93;924,00
437,51;754,00
438,10;289,00
438,69;56,000
439,27;19,000
439,86;90,000
440,44;180,00
441,03;203,00
441,61;205,00
442,20;145,00
442,78;104,00
443,37;167,00
443,95;137,00
444,54;80,000
445,12;123,00
445,71;104,00
446,29;-20,000
446,88;59,000
447,46;167,00
448,05;304,00
448,63;433,00
449,22;298,00
449,80;295,00
450,39;344,00
450,97;194,00
451,56;141,00
452,14;124,00
452,72;102,00
453,31;-6,0000
453,89;38,000
454,48;63,000
455,06;217,00
455,65;203,00
456,23;306,00
456,81;553,00
457,40;415,00
457,98;415,00
458,57;370,00
459,15;440,00
459,74;321,00
460,32;247,00
460,90;150,00
461,49;44,000
462,07;34,000
462,66;-6,0000
463,24;96,000
463,82;105,00
464,41;146,00
464,99;215,00
465,57;127,00
466,16;391,00
466,74;288,00
467,33;277,00
467,91;326,00
468,49;301,00
469,08;123,00
469,66;144,00
470,24;137,00
470,83;71,000
471,41;35,000
471,99;-4,0000
472,58;157,00
473,16;61,000
473,74;26,000
474,33;98,000
474,91;26,000
475,49;94,000
476,08;3,0000
476,66;58,000
477,24;-20,000
477,82;100,000
478,41;119,00
478,99;143,00
479,57;34,000
480,16;45,000
480,74;103,00
481,32;59,000
481,90;12,000
482,49;211,00
483,07;79,000
483,65;104,00
484,23;122,00
484,82;157,00
485,40;13,000
485,98;-28,000
486,56;84,000
487,15;39,000
487,73;38,000
488,31;-45,000
488,89;80,000
489,47;-14,000
490,06;62,000
490,64;104,00
491,22;113,00
491,80;140,00
492,39;-45,000
492,97;187,00
493,55;142,00
494,13;145,00
494,71;51,000
495,29;82,000
495,88;54,000
496,46;54,000
497,04;-71,000
497,62;157,00
498,20;88,000
498,78;9,0000
499,37;35,000
499,95;-90,000
500,53;-9,0000
501,11;40,000
501,69;84,000
502,27;10,0000
502,85;105,00
503,44;-12,000
504,02;85,000
504,60;78,000
505,18;17,000
505,76;125,00
506,34;113,00
506,92;44,000
507,50;56,000
508,08;-2,0000
508,67;71,000
509,25;48,000
509,83;-28,000
510,41;50,000
510,99;30,000
511,57;-7,0000
512,15;7,0000
512,73;-7,0000
513,31;60,000
513,89;59,000
514,47;39,000
515,05;72,000
515,63;34,000
516,21;30,000
516,79;82,000
517,38;77,000
517,96;-38,000
518,54;124,00
519,12;104,00
519,70;-7,0000
520,28;27,000
520,86;51,000
521,44;146,00
522,02;-27,000
522,60;-42,000
523,18;33,000
523,76;3,0000
524,34;-74,000
524,92;115,00
525,50;54,000
526,08;-76,000
526,66;-31,000
527,24;23,000
527,82;9,0000
528,39;50,000
528,97;-55,000
529,55;6,0000
530,13;-99,000
530,71;25,000
531,29;73,000
531,87;-33,000
532,45;21,000
533,03;-27,000
533,61;32,000
534,19;52,000
534,77;78,000
535,35;113,00
535,93;33,000
536,51;28,000
537,08;295,00
537,66;-24,000
538,24;133,00
538,82;28,000
539,40;60,000
539,98;64,000
540,56;45,000
541,14;31,000
541,72;8,0000
542,29;-36,000
542,87;-33,000
543,45;151,00
544,03;88,000
544,61;-108,00
545,19;-144,00
545,77;22,000
546,34;-45,000
546,92;14,000
547,50;22,000
548,08;80,000
548,66;7,0000
549,23;-90,000
549,81;-6,0000
550,39;-10,0000
550,97;92,000
551,55;-32,000
552,13;40,000
552,70;18,000
553,28;52,000
553,86;-34,000
554,44;1,0000
555,01;132,00
555,59;114,00
556,17;108,00
556,75;-43,000
557,33;-56,000
557,90;99,000
558,48;39,000
559,06;-82,000
559,64;-18,000
560,21;-81,000
560,79;30,000
561,37;-39,000
561,95;-86,000
562,52;-6,0000
563,10;-55,000
563,68;53,000
564,25;8,0000
564,83;5,0000
565,41;-16,000
565,99;9,0000
566,56;-21,000
567,14;27,000
567,72;144,00
568,29;73,000
568,87;78,000
569,45;37,000
570,02;-9,0000
570,60;80,000
571,18;-3,0000
571,75;-13,000
572,33;27,000
572,91;-6,0000
573,48;47,000
574,06;60,000
574,64;42,000
575,21;83,000
575,79;7,0000
576,37;112,00
576,94;84,000
577,52;147,00
578,09;29,000
578,67;1,0000
579,25;134,00
579,82;19,000
580,40;81,000
580,97;18,000
581,55;73,000
582,13;95,000
582,70;17,000
583,28;39,000
583,85;-12,000
584,43;158,00
585,01;-7,0000
585,58;122,00
586,16;-72,000
586,73;81,000
587,31;34,000
587,88;98,000
588,46;34,000
589,03;57,000
589,61;62,000
590,18;214,00
590,76;34,000
591,34;133,00
591,91;2,0000
592,49;30,000
593,06;23,000
593,64;33,000
594,21;-54,000
594,79;-23,000
595,36;57,000
595,94;109,00
596,51;20,000
597,09;32,000
597,66;21,000
598,24;16,000
598,81;4,0000
599,38;81,000
599,96;130,00
600,53;97,000
601,11;76,000
601,68;71,000
602,26;-38,000
602,83;103,00
603,41;117,00
603,98;63,000
604,56;67,000
605,13;107,00
605,70;140,00
606,28;50,000
606,85;5,0000
607,43;97,000
608,00;0
608,57;39,000
609,15;71,000
609,72;16,000
610,30;51,000
610,87;71,000
611,44;-65,000
612,02;24,000
612,59;39,000
613,16;17,000
613,74;-29,000
614,31;63,000
614,89;57,000
615,46;-38,000
616,03;5,0000
616,61;33,000
617,18;106,00
617,75;-60,000
618,33;99,000
618,90;-140,00
619,47;-5,0000
620,05;-22,000
620,62;-19,000
621,19;22,000
621,77;-47,000
622,34;-104,00
622,91;85,000
623,48;102,00
624,06;141,00
624,63;34,000
625,20;154,00
625,78;-34,000
626,35;-1,0000
626,92;67,000
627,49;4,0000
628,07;15,000
628,64;18,000
629,21;89,000
629,78;38,000
630,36;29,000
630,93;26,000
631,50;86,000
632,07;28,000
632,65;51,000
633,22;87,000
633,79;-15,000
634,36;2,0000
634,93;11,000
635,51;81,000
636,08;58,000
636,65;68,000
637,22;30,000
637,79;26,000
638,37;59,000
638,94;27,000
639,51;-21,000
640,08;14,000
640,65;0
641,22;38,000
641,80;70,000
642,37;104,00
642,94;-50,000
643,51;88,000
644,08;44,000
644,65;43,000
645,22;51,000
645,80;70,000
646,37;51,000
646,94;76,000
647,51;123,00
648,08;19,000
648,65;62,000
649,22;101,00
649,79;33,000
650,36;-40,000
650,93;45,000
651,51;77,000
652,08;101,00
652,65;118,00
653,22;85,000
653,79;171,00
654,36;53,000
654,93;219,00
655,50;116,00
656,07;144,00
656,64;71,000
657,21;61,000
657,78;139,00
658,35;141,00
658,92;147,00
659,49;17,000
660,06;164,00
660,63;85,000
661,20;208,00
661,77;156,00
662,34;116,00
662,91;203,00
663,48;158,00
664,05;113,00
664,62;130,00
665,19;152,00
665,76;62,000
666,33;85,000
666,90;71,000
667,47;100,000
668,04;64,000
668,61;204,00
669,18;210,00
669,75;193,00
670,32;128,00
670,89;210,00
671,46;201,00
672,03;131,00
672,60;224,00
673,17;111,00
673,74;-257,00
674,30;174,00
674,87;122,00
675,44;36,000
676,01;104,00
676,58;136,00
677,15;114,00
677,72;114,00
678,29;156,00
678,86;83,000
679,42;179,00
679,99;192,00
680,56;97,000
681,13;63,000
681,70;34,000
682,27;107,00
682,84;26,000
683,40;65,000
683,97;-12,000
684,54;67,000
685,11;120,00
685,68;97,000
686,25;63,000
686,81;75,000
687,38;-10,0000
687,95;97,000
688,52;55,000
689,09;6,0000
689,65;57,000
690,22;126,00
690,79;34,000
691,36;72,000
691,92;107,00
692,49;-15,000
693,06;-9,0000
693,63;58,000
694,20;50,000
694,76;48,000
695,33;-1,0000
695,90;-35,000
696,47;142,00
697,03;-115,00
697,60;52,000
698,17;6,0000
698,73;6,0000
699,30;29,000
699,87;-65,000
700,44;-37,000
701,00;-91,000
701,57;48,000
702,14;15,000
702,70;-15,000
703,27;-10,0000
703,84;-115,00
704,40;-18,000
704,97;-27,000
705,54;-96,000
706,10;57,000
706,67;-62,000
707,24;58,000
707,80;46,000
708,37;28,000
708,94;-26,000
709,50;72,000
710,07;44,000
710,64;25,000
711,20;33,000
711,77;-24,000
712,33;30,000
712,90;-120,00
713,47;-78,000
714,03;59,000
714,60;90,000
715,16;25,000
715,73;-11,000
716,30;18,000
716,86;9,0000
717,43;-75,000
717,99;79,000
718,56;71,000
719,12;-10,0000
719,69;-3,0000
720,26;64,000
720,82;36,000
721,39;80,000
721,95;-49,000
722,52;-23,000
723,08;8,0000
723,65;93,000
724,21;-25,000
724,78;116,00
725,34;-4,0000
725,91;101,00
726,47;67,000
727,04;-5,0000
727,60;26,000
728,17;115,00
728,73;-48,000
729,30;58,000
729,86;24,000
730,43;53,000
730,99;63,000
731,56;-81,000
732,12;36,000
732,68;6,0000
733,25;162,00
733,81;41,000
734,38;111,00
734,94;103,00
735,51;59,000
736,07;152,00
736,63;61,000
737,20;170,00
737,76;115,00
738,33;103,00
738,89;48,000
739,46;114,00
740,02;102,00
740,58;26,000
741,15;-22,000
741,71;45,000
742,27;7,0000
742,84;2,0000
743,40;-38,000
743,97;-25,000
744,53;104,00
745,09;52,000
745,66;91,000
746,22;168,00
746,78;164,00
747,35;36,000
747,91;124,00
748,47;173,00
749,04;186,00
749,60;137,00
750,16;89,000
750,72;183,00
751,29;-63,000
751,85;95,000
752,41;103,00
752,98;72,000
753,54;79,000
754,10;-67,000
754,66;53,000
755,23;-29,000
755,79;-24,000
756,35;5,0000
756,91;90,000
757,48;114,00
758,04;93,000
758,60;117,00
759,16;114,00
759,73;131,00
760,29;195,00
760,85;63,000
761,41;83,000
761,98;161,00
762,54;11,000
763,10;80,000
763,66;23,000
764,22;19,000
764,79;-16,000
765,35;111,00
765,91;71,000
766,47;117,00
767,03;-5,0000
767,59;9,0000
768,16;43,000
768,72;134,00
769,28;17,000
769,84;121,00
770,40;54,000
770,96;53,000
771,52;135,00
772,09;187,00
772,65;79,000
773,21;104,00
773,77;85,000
774,33;115,00
774,89;58,000
775,45;91,000
776,01;74,000
776,57;44,000
777,13;95,000
777,70;55,000
778,26;84,000
778,82;-54,000
779,38;38,000
779,94;-19,000
780,50;51,000
781,06;13,000
781,62;0
782,18;-82,000
782,74;-16,000
783,30;85,000
783,86;4,0000
784,42;45,000
784,98;17,000
785,54;-81,000
786,10;-39,000
786,66;81,000
787,22;-23,000
787,78;44,000
788,34;-44,000
788,90;34,000
789,46;-13,000
790,02;37,000
790,58;2,0000
791,14;48,000
791,70;-55,000
792,26;-23,000
792,82;19,000
793,38;353,00
793,94;21,000
794,50;69,000
795,06;-65,000
795,62;99,000
796,17;59,000
796,73;16,000
797,29;52,000
797,85;35,000
798,41;-34,000
798,97;40,000
799,53;-15,000
800,09;14,000
800,65;-122,00
801,21;47,000
801,76;45,000
802,32;-23,000
802,88;-48,000
803,44;12,000
804,00;68,000
804,56;19,000
805,12;66,000
805,67;44,000
806,23;-7,0000
806,79;-16,000
807,35;-10,0000
807,91;93,000
808,46;-23,000
809,02;-63,000
809,58;-26,000
810,14;-42,000
810,70;-14,000
811,26;31,000
811,81;39,000
812,37;2,0000
812,93;70,000
813,49;25,000
814,04;-12,000
814,60;15,000
815,16;102,00
815,72;47,000
816,27;-8,0000
816,83;48,000
817,39;28,000
817,95;27,000
818,50;-62,000
819,06;-37,000
819,62;-23,000
820,18;-6,0000
820,73;-33,000
821,29;-66,000
821,85;73,000
822,40;21,000
822,96;41,000
823,52;-63,000
824,07;-210,00
824,63;-54,000
825,19;-18,000
825,74;-4,0000
826,30;36,000
826,86;54,000
827,41;2,0000
827,97;-41,000
828,53;15,000
829,08;-14,000
829,64;10,0000
830,20;-1,0000
830,75;22,000
831,31;45,000
831,86;64,000
832,42;30,000
832,98;112,00
833,53;33,000
834,09;-4,0000
834,64;60,000
835,20;81,000
835,76;4,0000
836,31;-5,0000
836,87;181,00
837,42;-30,000
837,98;18,000
838,53;52,000
839,09;-266,00
839,64;45,000
840,20;-42,000
840,75;-28,000
841,31;0
841,87;25,000
842,42;25,000
842,98;50,000
843,53;6,0000
844,09;55,000
844,64;58,000
845,20;-82,000
845,75;67,000
846,31;34,000
846,86;-12,000
847,41;34,000
847,97;-77,000
848,52;154,00
849,08;139,00
849,63;7,0000
850,19;-2,0000
850,74;-38,000
851,30;-76,000
851,85;68,000
852,41;-99,000
852,96;67,000
853,51;-34,000
854,07;-23,000
854,62;-12,000
855,18;-2,0000
855,73;77,000
856,28;39,000
856,84;-114,00
857,39;3,0000
857,95;-10,0000
858,50;61,000
859,05;9,0000
859,61;-3,0000
860,16;-26,000
860,71;76,000
861,27;-42,000
861,82;81,000
862,37;83,000
862,93;112,00
863,48;-31,000
864,03;53,000
864,59;115,00
865,14;-37,000
865,69;39,000
866,25;5,0000
866,80;-38,000
867,35;35,000
867,90;135,00
868,46;48,000
869,01;100,000
869,56;46,000
870,12;47,000
870,67;-35,000
871,22;85,000
871,77;99,000
872,33;99,000
872,88;23,000
873,43;120,00
873,98;-17,000
874,54;-27,000
875,09;127,00
875,64;22,000
876,19;50,000
876,74;-61,000
877,30;-21,000
877,85;59,000
878,40;-51,000
878,95;0
879,50;-3,0000
880,06;-56,000
880,61;-23,000
881,16;68,000
881,71;26,000
882,26;31,000
882,81;46,000
883,37;10,0000
883,92;13,000
884,47;-20,000
885,02;-23,000
885,57;10,0000
886,12;56,000
886,67;-12,000
887,22;43,000
887,78;181,00
888,33;88,000
888,88;72,000
889,43;-19,000
889,98;57,000
890,53;63,000
891,08;70,000
891,63;36,000
892,18;23,000
892,73;-13,000
893,28;37,000
893,83;16,000
894,38;6,0000
894,93;-64,000
895,48;-32,000
896,03;80,000
896,59;90,000
897,14;-23,000
897,69;-23,000
898,24;-39,000
898,79;28,000
899,34;-5,0000
899,89;41,000
900,44;-102,00
900,99;-19,000
901,53;4,0000
902,08;46,000
902,63;20,000
903,18;57,000
903,73;-9,0000
904,28;-40,000
904,83;-17,000
905,38;15,000
905,93;67,000
906,48;-32,000
907,03;-52,000
907,58;-100,000
908,13;31,000
908,68;1,0000
909,23;72,000
909,78;-72,000
910,32;31,000
910,87;21,000
911,42;-19,000
911,97;-64,000
912,52;111,00
913,07;56,000
913,62;-18,000
914,17;-67,000
914,71;-26,000
915,26;21,000
915,81;41,000
916,36;-60,000
916,91;-11,000
917,46;54,000
918,00;22,000
918,55;24,000
919,10;-46,000
919,65;146,00
920,20;60,000
920,74;-23,000
921,29;-62,000
921,84;20,000
922,39;-49,000
922,94;35,000
923,48;22,000
924,03;34,000
924,58;0
925,13;-83,000
925,67;43,000
926,22;6,0000
926,77;65,000
927,32;46,000
927,86;38,000
928,41;-41,000
928,96;-14,000
929,50;1,0000
930,05;74,000
930,60;100,000
931,15;-66,000
931,69;-61,000
932,24;13,000
932,79;-33,000
933,33;29,000
933,88;-8,0000
934,43;-51,000
934,97;-1,0000
935,52;149,00
936,07;-131,00
936,61;-16,000
937,16;-18,000
937,71;14,000
938,25;-62,000
938,80;40,000
939,34;68,000
939,89;-35,000
940,44;-13,000
940,98;74,000
941,53;-14,000
942,07;33,000
942,62;-60,000
943,17;-63,000
943,71;-16,000
944,26;48,000
944,80;6,0000
945,35;29,000
945,89;-57,000
946,44;25,000
946,99;137,00
947,53;129,00
948,08;49,000
948,62;-44,000
949,17;14,000
949,71;22,000
950,26;-75,000
950,80;-59,000
951,35;-30,000
951,89;-43,000
952,44;50,000
952,98;-7,0000
953,53;-3,0000
954,07;9,0000
954,62;-2,0000
955,16;-41,000
955,71;-64,000
956,25;27,000
956,79;-20,000
957,34;7,0000
957,88;-95,000
958,43;13,000
958,97;27,000
959,52;-130,00
960,06;-40,000
960,60;-34,000
961,15;-55,000
961,69;45,000
962,24;-77,000
962,78;-50,000
963,32;-64,000
963,87;-24,000
964,41;121,00
964,96;-79,000
965,50;65,000
966,04;-66,000
966,59;-72,000
967,13;-53,000
967,67;12,000
968,22;23,000
968,76;24,000
969,30;20,000
969,85;-38,000
970,39;97,000
970,93;-29,000
971,47;-49,000
972,02;11,000
972,56;5,0000
973,10;-50,000
973,65;23,000
974,19;-18,000
974,73;-96,000
975,27;71,000
975,82;64,000
976,36;24,000
976,90;13,000
977,44;-67,000
977,99;-9,0000
978,53;56,000
979,07;11,000
979,61;-13,000
980,16;-46,000
980,70;36,000
981,24;95,000
981,78;5,0000
982,32;70,000
982,87;81,000
983,41;-29,000
983,95;11,000
984,49;-93,000
985,03;37,000
985,57;-37,000
986,12;-67,000
986,66;88,000
987,20;56,000
987,74;77,000
988,28;18,000
988,82;-90,000
989,36;0
989,91;16,000
990,45;55,000
990,99;21,000
991,53;13,000
992,07;62,000
992,61;35,000
993,15;-13,000
993,69;61,000
994,23;-70,000
994,77;33,000
995,31;-9,0000
995,86;-13,000
996,40;78,000
996,94;84,000
997,48;-72,000
998,02;24,000
998,56;-37,000
999,10;-42,000
999,64;-82,000
1000,18;-12,000
1000,72;54,000
1001,26;-39,000
1001,80;92,000
1002,34;71,000
1002,88;-20,000
1003,42;-53,000
1003,96;85,000
1004,50;-20,000
1005,04;0
1005,58;3,0000
1006,12;-94,000
1006,66;25,000
1007,20;45,000
1007,73;47,000
1008,27;-20,000
1008,81;66,000
1009,35;31,000
1009,89;8,0000
1010,43;139,00
1010,97;-41,000
1011,51;-91,000
1012,05;-93,000
1012,59;-23,000
1013,13;24,000
1013,66;13,000
1014,20;-37,000
1014,74;46,000
1015,28;-33,000
1015,82;-37,000
1016,36;-28,000
1016,90;-75,000
1017,43;-95,000
1017,97;-32,000
1018,51;99,000
1019,05;50,000
1019,59;99,000
1020,13;37,000
1020,66;-81,000
1021,20;-16,000
1021,74;61,000
1022,28;46,000
1022,81;24,000
1023,35;-39,000
1023,89;106,00
1024,43;46,000
1024,97;8,0000
1025,50;-21,000
1026,04;37,000
1026,58;31,000
1027,12;-107,00
1027,65;28,000
1028,19;-34,000
1028,73;17,000
1029,26;11,000
1029,80;87,000
1030,34;76,000
1030,88;79,000
1031,41;43,000
1031,95;37,000
1032,49;51,000
1033,02;-37,000
1033,56;17,000
1034,10;41,000
1034,63;11,000
1035,17;49,000
1035,71;-33,000
1036,24;10,0000
1036,78;32,000
1037,32;-5,0000
1037,85;-4,0000
1038,39;21,000
1038,92;12,000
1039,46;7,0000
1040,00;107,00
1040,53;64,000
1041,07;105,00
1041,60;-108,00
1042,14;56,000
1042,68;-9,0000
1043,21;-33,000
1043,75;-64,000
1044,28;-4,0000
1044,82;16,000
1045,35;-48,000
1045,89;-52,000
1046,42;47,000
1046,96;-62,000
1047,49;34,000
1048,03;25,000
1048,57;-106,00
1049,10;28,000
1049,64;-263,00
1050,17;73,000
1050,70;-2,0000
1051,24;-6,0000
1051,77;13,000
1052,31;14,000
1052,84;6,0000
1053,38;39,000
1053,91;-47,000
1054,45;58,000
1054,98;-63,000
1055,52;67,000
1056,05;96,000
1056,59;-5,0000
1057,12;-86,000
1057,65;-81,000
1058,19;66,000
1058,72;-47,000
1059,26;103,00
1059,79;0
1060,32;59,000
1060,86;8,0000
1061,39;24,000
1061,93;-3,0000
1062,46;-43,000
1062,99;26,000
1063,53;17,000
1064,06;-56,000
1064,59;109,00
1065,13;23,000
1065,66;58,000
1066,19;7,0000
1066,73;12,000
1067,26;25,000
1067,79;37,000
1068,33;-65,000
1068,86;-3,0000
1069,39;-81,000
1069,92;-27,000
1070,46;17,000
1070,99;-101,00
1071,52;48,000
1072,05;21,000
1072,59;115,00
1073,12;71,000
1073,65;32,000
1074,18;21,000
1074,72;-16,000
1075,25;-34,000
1075,78;22,000
1076,31;-105,00
1076,85;90,000
1077,38;-72,000
1077,91;-67,000
1078,44;-25,000
1078,97;-10,0000
1079,51;-43,000
1080,04;28,000
1080,57;-40,000
1081,10;145,00
1081,63;-5,0000
1082,16;40,000
1082,70;-75,000
1083,23;-113,00
1083,76;0
1084,29;23,000
1084,82;103,00
1085,35;-3,0000
1085,88;-60,000
1086,41;-14,000
1086,94;-75,000
1087,48;41,000
1088,01;10,0000
1088,54;-17,000
1089,07;70,000
1089,60;-6,0000
1090,13;-17,000
1090,66;155,00
1091,19;-31,000
1091,72;-40,000
1092,25;48,000
1092,78;71,000
1093,31;-15,000
1093,84;76,000
1094,37;-50,000
1094,90;-49,000
1095,43;-78,000
1095,96;-7,0000
1096,49;-44,000
1097,02;-37,000
1097,55;-6,0000
1098,08;-23,000
1098,61;36,000
1099,14;161,00
1099,67;-47,000
1100,20;-14,000
