M- 12 del, 3
Integration time: 5000 ms
Average: 1 scans
Nr of pixels used for smoothing: 0
Data measured with spectrometer serial number: 0604021S1
Wave   ;Sample
[nm]   ;[counts]
173,70;0
174,30;29,000
174,90;9,0000
175,50;38,000
176,10;98,000
176,70;137,00
177,30;-81,000
177,90;5,0000
178,50;41,000
179,10;32,000
179,70;21,000
180,30;22,000
180,89;-8,0000
181,49;-39,000
182,09;6,0000
182,69;-29,000
183,29;-55,000
183,89;61,000
184,49;73,000
185,09;119,00
185,69;71,000
186,29;94,000
186,89;27,000
187,48;-18,000
188,08;10,0000
188,68;-37,000
189,28;-37,000
189,88;16,000
190,48;-66,000
191,08;2,0000
191,68;121,00
192,28;-5,0000
192,87;-6,0000
193,47;-18,000
194,07;34,000
194,67;54,000
195,27;80,000
195,87;54,000
196,47;25,000
197,06;64,000
197,66;-28,000
198,26;61,000
198,86;-25,000
199,46;24,000
200,06;128,00
200,66;22,000
201,25;-99,000
201,85;103,00
202,45;22,000
203,05;61,000
203,65;-26,000
204,24;-49,000
204,84;-7,0000
205,44;-145,00
206,04;-59,000
206,64;100,000
207,24;46,000
207,83;-50,000
208,43;33,000
209,03;7,0000
209,63;-46,000
210,22;116,00
210,82;-69,000
211,42;-79,000
212,02;-101,00
212,62;-23,000
213,21;-59,000
213,81;-4,0000
214,41;-15,000
215,01;95,000
215,60;-37,000
216,20;39,000
216,80;39,000
217,40;-14,000
218,00;75,000
218,59;-132,00
219,19;37,000
219,79;54,000
220,38;-62,000
220,98;-55,000
221,58;7,0000
222,18;49,000
222,77;58,000
223,37;11,000
223,97;4,0000
224,57;25,000
225,16;70,000
225,76;79,000
226,36;-8,0000
226,95;-35,000
227,55;-84,000
228,15;61,000
228,75;12,000
229,34;-152,00
229,94;4,0000
230,54;82,000
231,13;-29,000
231,73;115,00
232,33;-64,000
232,92;15,000
233,52;96,000
234,12;15,000
234,71;131,00
235,31;-8,0000
235,91;-30,000
236,50;16,000
237,10;35,000
237,70;-386,00
238,29;15,000
238,89;46,000
239,49;-58,000
240,08;-42,000
240,68;-7,0000
241,28;-6,0000
241,87;-8,0000
242,47;88,000
243,06;88,000
243,66;18,000
244,26;3,0000
244,85;1,0000
245,45;-9,0000
246,05;81,000
246,64;46,000
247,24;-18,000
247,83;37,000
248,43;88,000
249,03;100,000
249,62;-75,000
250,22;-24,000
250,81;63,000
251,41;-31,000
252,01;-56,000
252,60;10,0000
253,20;81,000
253,79;-50,000
254,39;64,000
254,98;61,000
255,58;-24,000
256,18;41,000
256,77;-46,000
257,37;-32,000
257,96;-2,0000
258,56;-45,000
259,15;38,000
259,75;4,0000
260,34;-24,000
260,94;-50,000
261,53;166,00
262,13;99,000
262,73;126,00
263,32;52,000
263,92;-21,000
264,51;-40,000
265,11;32,000
265,70;28,000
266,30;52,000
266,89;48,000
267,49;134,00
268,08;-72,000
268,68;57,000
269,27;85,000
269,87;20,000
270,46;3,0000
271,06;62,000
271,65;44,000
272,25;-3,0000
272,84;29,000
273,44;-33,000
274,03;10,0000
274,62;141,00
275,22;76,000
275,81;-22,000
276,41;28,000
277,00;27,000
277,60;-30,000
278,19;46,000
278,79;64,000
279,38;-41,000
279,98;-25,000
280,57;-64,000
281,16;112,00
281,76;22,000
282,35;20,000
282,95;17,000
283,54;2,0000
284,14;-55,000
284,73;-2,0000
285,32;-22,000
285,92;71,000
286,51;82,000
287,11;-85,000
287,70;-4,0000
288,29;100,000
288,89;81,000
289,48;-9,0000
290,08;-17,000
290,67;89,000
291,26;-9,0000
291,86;66,000
292,45;35,000
293,04;10,0000
293,64;54,000
294,23;15,000
294,83;49,000
295,42;7,0000
296,01;-23,000
296,61;41,000
297,20;-49,000
297,79;105,00
298,39;109,00
298,98;110,00
299,57;92,000
300,17;1,0000
300,76;91,000
301,35;-63,000
301,95;-5,0000
302,54;44,000
303,13;26,000
303,73;29,000
304,32;65,000
304,91;20,000
305,51;102,00
306,10;57,000
306,69;1,0000
307,28;86,000
307,88;54,000
308,47;-52,000
309,06;56,000
309,66;5,0000
310,25;12,000
310,84;-6,0000
311,43;-2,0000
312,03;108,00
312,62;177,00
313,21;280,00
313,81;328,00
314,40;439,00
314,99;810,00
315,58;1234,0
316,18;1363,0
316,77;1180,0
317,36;1150,0
317,95;1099,0
318,54;907,00
319,14;698,00
319,73;224,00
320,32;62,000
320,91;73,000
321,51;1,0000
322,10;-39,000
322,69;11,000
323,28;77,000
323,87;-26,000
324,47;44,000
325,06;7,0000
325,65;2,0000
326,24;31,000
326,83;20,000
327,43;107,00
328,02;208,00
328,61;188,00
329,20;30,000
329,79;80,000
330,39;158,00
330,98;181,00
331,57;182,00
332,16;184,00
332,75;187,00
333,34;283,00
333,93;396,00
334,53;459,00
335,12;907,00
335,71;2599,0
336,30;6245,0
336,89;9319,0
337,48;9457,0
338,07;9658,0
338,67;9709,0
339,26;9186,0
339,85;7953,0
340,44;4957,0
341,03;859,00
341,62;198,00
342,21;79,000
342,80;241,00
343,39;172,00
343,99;58,000
344,58;39,000
345,17;58,000
345,76;85,000
346,35;71,000
346,94;94,000
347,53;123,00
348,12;129,00
348,71;138,00
349,30;236,00
349,89;371,00
350,48;422,00
351,07;373,00
351,66;744,00
352,26;1409,0
352,85;2529,0
353,44;3422,0
354,03;3496,0
354,62;3711,0
355,21;4026,0
355,80;4957,0
356,39;7108,0
356,98;11371
357,57;12701
358,16;12787
358,75;12896
359,34;12459
359,93;11801
360,52;9654,0
361,11;5256,0
361,70;474,00
362,29;161,00
362,88;158,00
363,47;135,00
364,06;116,00
364,65;102,00
365,24;120,00
365,83;148,00
366,42;269,00
367,01;383,00
367,60;271,00
368,19;392,00
368,78;416,00
369,37;427,00
369,95;755,00
370,54;1112,0
371,13;1180,0
371,72;1341,0
372,31;1426,0
372,90;1424,0
373,49;1677,0
374,08;2230,0
374,67;3571,0
375,26;4549,0
375,85;4688,0
376,44;4960,0
377,03;4695,0
377,61;4596,0
378,20;4396,0
378,79;3976,0
379,38;3944,0
379,97;6754,0
380,56;7417,0
381,15;7419,0
381,74;7351,0
382,33;6992,0
382,91;6237,0
383,50;4590,0
384,09;1660,0
384,68;162,00
385,27;285,00
385,86;170,00
386,45;215,00
387,03;233,00
387,62;295,00
388,21;243,00
388,80;390,00
389,39;367,00
389,98;340,00
390,57;309,00
391,15;293,00
391,74;337,00
392,33;458,00
392,92;503,00
393,51;884,00
394,09;1040,0
394,68;933,00
395,27;1000,00
395,86;1052,0
396,45;1015,0
397,03;967,00
397,62;761,00
398,21;1006,0
398,80;1596,0
399,39;2427,0
399,97;2674,0
400,56;2843,0
401,15;2755,0
401,74;2671,0
402,32;2403,0
402,91;2041,0
403,50;1040,0
404,09;1056,0
404,67;1582,0
405,26;2738,0
405,85;3181,0
406,44;3171,0
407,02;3317,0
407,61;3217,0
408,20;2771,0
408,78;2576,0
409,37;1507,0
409,96;693,00
410,55;454,00
411,13;429,00
411,72;341,00
412,31;304,00
412,89;323,00
413,48;335,00
414,07;380,00
414,65;372,00
415,24;377,00
415,83;389,00
416,42;352,00
417,00;347,00
417,59;263,00
418,18;336,00
418,76;528,00
419,35;838,00
419,94;886,00
420,52;925,00
421,11;1077,0
421,69;990,00
422,28;936,00
422,87;718,00
423,45;642,00
424,04;189,00
424,63;448,00
425,21;571,00
425,80;923,00
426,38;1490,0
426,97;1682,0
427,56;1846,0
428,14;1761,0
428,73;1716,0
429,31;1396,0
429,90;1173,0
430,49;530,00
431,07;345,00
431,66;354,00
432,24;398,00
432,83;455,00
433,42;807,00
434,00;1137,0
434,59;1214,0
435,17;1285,0
435,76;1151,0
436,34;1167,0
436,93;1136,0
437,51;817,00
438,10;488,00
438,69;124,00
439,27;75,000
439,86;131,00
440,44;89,000
441,03;254,00
441,61;215,00
442,20;142,00
442,78;161,00
443,37;285,00
443,95;184,00
444,54;68,000
445,12;122,00
445,71;214,00
446,29;7,0000
446,88;125,00
447,46;171,00
448,05;254,00
448,63;452,00
449,22;385,00
449,80;317,00
450,39;235,00
450,97;268,00
451,56;225,00
452,14;127,00
452,72;109,00
453,31;77,000
453,89;117,00
454,48;85,000
455,06;171,00
455,65;202,00
456,23;360,00
456,81;511,00
457,40;535,00
457,98;500,00
458,57;518,00
459,15;522,00
459,74;390,00
460,32;277,00
460,90;203,00
461,49;51,000
462,07;49,000
462,66;110,00
463,24;129,00
463,82;54,000
464,41;181,00
464,99;285,00
465,57;212,00
466,16;430,00
466,74;445,00
467,33;336,00
467,91;282,00
468,49;377,00
469,08;159,00
469,66;197,00
470,24;126,00
470,83;109,00
471,41;58,000
471,99;140,00
472,58;120,00
473,16;156,00
473,74;95,000
474,33;46,000
474,91;53,000
475,49;127,00
476,08;-9,0000
476,66;41,000
477,24;13,000
477,82;47,000
478,41;184,00
478,99;144,00
479,57;64,000
480,16;-24,000
480,74;125,00
481,32;154,00
481,90;89,000
482,49;199,00
483,07;129,00
483,65;125,00
484,23;64,000
484,82;46,000
485,40;74,000
485,98;107,00
486,56;101,00
487,15;61,000
487,73;28,000
488,31;-6,0000
488,89;58,000
489,47;18,000
490,06;51,000
490,64;47,000
491,22;48,000
491,80;96,000
492,39;97,000
492,97;238,00
493,55;170,00
494,13;92,000
494,71;95,000
495,29;34,000
495,88;80,000
496,46;110,00
497,04;-49,000
497,62;144,00
498,20;66,000
498,78;-6,0000
499,37;-46,000
499,95;-39,000
500,53;11,000
501,11;-2,0000
501,69;167,00
502,27;89,000
502,85;85,000
503,44;56,000
504,02;117,00
504,60;84,000
505,18;-56,000
505,76;154,00
506,34;65,000
506,92;64,000
507,50;14,000
508,08;42,000
508,67;-24,000
509,25;7,0000
509,83;-15,000
510,41;54,000
510,99;42,000
511,57;1,0000
512,15;12,000
512,73;3,0000
513,31;63,000
513,89;24,000
514,47;52,000
515,05;75,000
515,63;107,00
516,21;96,000
516,79;54,000
517,38;74,000
517,96;73,000
518,54;130,00
519,12;78,000
519,70;-21,000
520,28;121,00
520,86;56,000
521,44;92,000
522,02;-47,000
522,60;35,000
523,18;74,000
523,76;-32,000
524,34;67,000
524,92;63,000
525,50;88,000
526,08;-61,000
526,66;39,000
527,24;-3,0000
527,82;-36,000
528,39;102,00
528,97;75,000
529,55;22,000
530,13;-10,0000
530,71;130,00
531,29;53,000
531,87;15,000
532,45;21,000
533,03;64,000
533,61;159,00
534,19;82,000
534,77;33,000
535,35;146,00
535,93;63,000
536,51;104,00
537,08;292,00
537,66;5,0000
538,24;19,000
538,82;92,000
539,40;39,000
539,98;62,000
540,56;39,000
541,14;1,0000
541,72;-4,0000
542,29;37,000
542,87;45,000
543,45;168,00
544,03;38,000
544,61;0
545,19;-79,000
545,77;-18,000
546,34;-62,000
546,92;105,00
547,50;-13,000
548,08;114,00
548,66;107,00
549,23;-80,000
549,81;-12,000
550,39;-62,000
550,97;31,000
551,55;-26,000
552,13;77,000
552,70;-29,000
553,28;63,000
553,86;44,000
554,44;61,000
555,01;29,000
555,59;164,00
556,17;8,0000
556,75;-5,0000
557,33;-12,000
557,90;43,000
558,48;-16,000
559,06;0
559,64;-28,000
560,21;-11,000
560,79;73,000
561,37;-79,000
561,95;-57,000
562,52;-24,000
563,10;14,000
563,68;59,000
564,25;51,000
564,83;90,000
565,41;67,000
565,99;-17,000
566,56;70,000
567,14;97,000
567,72;58,000
568,29;45,000
568,87;129,00
569,45;64,000
570,02;19,000
570,60;40,000
571,18;-55,000
571,75;-21,000
572,33;59,000
572,91;97,000
573,48;47,000
574,06;147,00
574,64;-22,000
575,21;83,000
575,79;44,000
576,37;161,00
576,94;101,00
577,52;-18,000
578,09;26,000
578,67;-8,0000
579,25;80,000
579,82;-4,0000
580,40;53,000
580,97;78,000
581,55;92,000
582,13;61,000
582,70;63,000
583,28;52,000
583,85;2,0000
584,43;142,00
585,01;13,000
585,58;44,000
586,16;6,0000
586,73;7,0000
587,31;87,000
587,88;64,000
588,46;56,000
589,03;19,000
589,61;61,000
590,18;52,000
590,76;70,000
591,34;29,000
591,91;57,000
592,49;69,000
593,06;44,000
593,64;68,000
594,21;0
594,79;27,000
595,36;85,000
595,94;86,000
596,51;75,000
597,09;30,000
597,66;23,000
598,24;55,000
598,81;-47,000
599,38;95,000
599,96;164,00
600,53;141,00
601,11;186,00
601,68;60,000
602,26;-4,0000
602,83;103,00
603,41;19,000
603,98;57,000
604,56;127,00
605,13;91,000
605,70;73,000
606,28;125,00
606,85;83,000
607,43;19,000
608,00;48,000
608,57;27,000
609,15;60,000
609,72;144,00
610,30;99,000
610,87;37,000
611,44;-74,000
612,02;75,000
612,59;48,000
613,16;54,000
613,74;1,0000
614,31;35,000
614,89;44,000
615,46;12,000
616,03;8,0000
616,61;22,000
617,18;68,000
617,75;36,000
618,33;151,00
618,90;-92,000
619,47;76,000
620,05;83,000
620,62;25,000
621,19;-1,0000
621,77;-33,000
622,34;-47,000
622,91;80,000
623,48;16,000
624,06;67,000
624,63;8,0000
625,20;99,000
625,78;2,0000
626,35;68,000
626,92;18,000
627,49;58,000
628,07;-64,000
628,64;19,000
629,21;72,000
629,78;-43,000
630,36;21,000
630,93;-3,0000
631,50;53,000
632,07;68,000
632,65;86,000
633,22;105,00
633,79;30,000
634,36;101,00
634,93;50,000
635,51;159,00
636,08;67,000
636,65;79,000
637,22;116,00
637,79;61,000
638,37;170,00
638,94;-8,0000
639,51;59,000
640,08;-11,000
640,65;162,00
641,22;98,000
641,80;123,00
642,37;60,000
642,94;-49,000
643,51;-60,000
644,08;40,000
644,65;103,00
645,22;174,00
645,80;68,000
646,37;86,000
646,94;81,000
647,51;130,00
648,08;177,00
648,65;66,000
649,22;62,000
649,79;60,000
650,36;55,000
650,93;54,000
651,51;378,00
652,08;37,000
652,65;54,000
653,22;80,000
653,79;82,000
654,36;186,00
654,93;221,00
655,50;283,00
656,07;104,00
656,64;130,00
657,21;140,00
657,78;217,00
658,35;152,00
658,92;235,00
659,49;66,000
660,06;166,00
660,63;223,00
661,20;202,00
661,77;233,00
662,34;243,00
662,91;246,00
663,48;219,00
664,05;173,00
664,62;103,00
665,19;239,00
665,76;111,00
666,33;193,00
666,90;122,00
667,47;138,00
668,04;101,00
668,61;158,00
669,18;186,00
669,75;261,00
670,32;268,00
670,89;216,00
671,46;242,00
672,03;69,000
672,60;184,00
673,17;182,00
673,74;163,00
674,30;164,00
674,87;102,00
675,44;144,00
676,01;142,00
676,58;110,00
677,15;145,00
677,72;156,00
678,29;153,00
678,86;96,000
679,42;296,00
679,99;183,00
680,56;149,00
681,13;41,000
681,70;125,00
682,27;156,00
682,84;87,000
683,40;86,000
683,97;27,000
684,54;103,00
685,11;111,00
685,68;167,00
686,25;112,00
686,81;122,00
687,38;48,000
687,95;67,000
688,52;118,00
689,09;3,0000
689,65;89,000
690,22;76,000
690,79;80,000
691,36;112,00
691,92;111,00
692,49;78,000
693,06;82,000
693,63;139,00
694,20;-77,000
694,76;95,000
695,33;44,000
695,90;-4,0000
696,47;120,00
697,03;-76,000
697,60;9,0000
698,17;-55,000
698,73;67,000
699,30;106,00
699,87;-47,000
700,44;40,000
701,00;-108,00
701,57;36,000
702,14;117,00
702,70;-2,0000
703,27;-61,000
703,84;-105,00
704,40;52,000
704,97;39,000
705,54;28,000
706,10;31,000
706,67;-46,000
707,24;79,000
707,80;31,000
708,37;133,00
708,94;-32,000
709,50;100,000
710,07;-31,000
710,64;-13,000
711,20;45,000
711,77;17,000
712,33;16,000
712,90;19,000
713,47;19,000
714,03;43,000
714,60;86,000
715,16;113,00
715,73;32,000
716,30;69,000
716,86;0
717,43;48,000
717,99;146,00
718,56;46,000
719,12;-32,000
719,69;112,00
720,26;33,000
720,82;35,000
721,39;66,000
721,95;-63,000
722,52;53,000
723,08;124,00
723,65;90,000
724,21;-2,0000
724,78;75,000
725,34;44,000
725,91;184,00
726,47;124,00
727,04;-8,0000
727,60;128,00
728,17;50,000
728,73;-24,000
729,30;99,000
729,86;45,000
730,43;59,000
730,99;46,000
731,56;-53,000
732,12;109,00
732,68;3,0000
733,25;53,000
733,81;127,00
734,38;133,00
734,94;67,000
735,51;131,00
736,07;115,00
736,63;155,00
737,20;180,00
737,76;244,00
738,33;101,00
738,89;148,00
739,46;160,00
740,02;75,000
740,58;146,00
741,15;82,000
741,71;87,000
742,27;140,00
742,84;14,000
743,40;167,00
743,97;41,000
744,53;105,00
745,09;13,000
745,66;11,000
746,22;247,00
746,78;89,000
747,35;76,000
747,91;89,000
748,47;175,00
749,04;107,00
749,60;242,00
750,16;141,00
750,72;180,00
751,29;36,000
751,85;180,00
752,41;51,000
752,98;130,00
753,54;0
754,10;-81,000
754,66;0
755,23;1,0000
755,79;37,000
756,35;110,00
756,91;32,000
757,48;31,000
758,04;81,000
758,60;78,000
759,16;104,00
759,73;138,00
760,29;185,00
760,85;45,000
761,41;59,000
761,98;114,00
762,54;162,00
763,10;163,00
763,66;100,000
764,22;2,0000
764,79;128,00
765,35;120,00
765,91;179,00
766,47;123,00
767,03;-24,000
767,59;46,000
768,16;32,000
768,72;48,000
769,28;25,000
769,84;89,000
770,40;31,000
770,96;-21,000
771,52;143,00
772,09;118,00
772,65;143,00
773,21;133,00
773,77;131,00
774,33;127,00
774,89;233,00
775,45;194,00
776,01;65,000
776,57;136,00
777,13;144,00
777,70;189,00
778,26;47,000
778,82;102,00
779,38;117,00
779,94;-19,000
780,50;35,000
781,06;73,000
781,62;34,000
782,18;-162,00
782,74;59,000
783,30;114,00
783,86;31,000
784,42;4,0000
784,98;-37,000
785,54;14,000
786,10;-54,000
786,66;61,000
787,22;-80,000
787,78;19,000
788,34;54,000
788,90;38,000
789,46;-56,000
790,02;70,000
790,58;54,000
791,14;31,000
791,70;-16,000
792,26;6,0000
792,82;60,000
793,38;-4,0000
793,94;36,000
794,50;108,00
795,06;23,000
795,62;-7,0000
796,17;45,000
796,73;35,000
797,29;32,000
797,85;-12,000
798,41;26,000
798,97;68,000
799,53;24,000
800,09;26,000
800,65;-10,0000
801,21;133,00
801,76;-13,000
802,32;-3,0000
802,88;-69,000
803,44;-1,0000
804,00;89,000
804,56;11,000
805,12;-17,000
805,67;-44,000
806,23;-20,000
806,79;64,000
807,35;58,000
807,91;87,000
808,46;-32,000
809,02;3,0000
809,58;-27,000
810,14;-8,0000
810,70;89,000
811,26;-44,000
811,81;0
812,37;54,000
812,93;57,000
813,49;51,000
814,04;-12,000
814,60;-45,000
815,16;103,00
815,72;29,000
816,27;83,000
816,83;85,000
817,39;85,000
817,95;-34,000
818,50;-27,000
819,06;8,0000
819,62;31,000
820,18;62,000
820,73;39,000
821,29;-13,000
821,85;99,000
822,40;5,0000
822,96;122,00
823,52;-24,000
824,07;-19,000
824,63;-3,0000
825,19;77,000
825,74;29,000
826,30;75,000
826,86;69,000
827,41;63,000
827,97;38,000
828,53;-32,000
829,08;12,000
829,64;-33,000
830,20;37,000
830,75;21,000
831,31;18,000
831,86;48,000
832,42;28,000
832,98;92,000
833,53;-5,0000
834,09;7,0000
834,64;21,000
835,20;68,000
835,76;-25,000
836,31;12,000
836,87;62,000
837,42;-36,000
837,98;-39,000
838,53;-26,000
839,09;-127,00
839,64;40,000
840,20;-24,000
840,75;-5,0000
841,31;-69,000
841,87;39,000
842,42;81,000
842,98;-13,000
843,53;-20,000
844,09;30,000
844,64;92,000
845,20;4,0000
845,75;0
846,31;52,000
846,86;22,000
847,41;33,000
847,97;-15,000
848,52;78,000
849,08;19,000
849,63;25,000
850,19;21,000
850,74;54,000
851,30;-53,000
851,85;119,00
852,41;22,000
852,96;44,000
853,51;-28,000
854,07;37,000
854,62;9,0000
855,18;-47,000
855,73;54,000
856,28;6,0000
856,84;-210,00
857,39;154,00
857,95;-35,000
858,50;40,000
859,05;48,000
859,61;41,000
860,16;82,000
860,71;90,000
861,27;57,000
861,82;38,000
862,37;56,000
862,93;-6,0000
863,48;-17,000
864,03;3,0000
864,59;75,000
865,14;-27,000
865,69;26,000
866,25;213,00
866,80;8,0000
867,35;75,000
867,90;77,000
868,46;22,000
869,01;107,00
869,56;80,000
870,12;77,000
870,67;9,0000
871,22;-11,000
871,77;142,00
872,33;97,000
872,88;78,000
873,43;105,00
873,98;-15,000
874,54;77,000
875,09;138,00
875,64;0
876,19;95,000
876,74;82,000
877,30;51,000
877,85;-10,0000
878,40;22,000
878,95;23,000
879,50;70,000
880,06;-35,000
880,61;24,000
881,16;71,000
881,71;52,000
882,26;36,000
882,81;5,0000
883,37;9,0000
883,92;12,000
884,47;32,000
885,02;-46,000
885,57;20,000
886,12;124,00
886,67;8,0000
887,22;68,000
887,78;124,00
888,33;49,000
888,88;17,000
889,43;9,0000
889,98;91,000
890,53;51,000
891,08;90,000
891,63;89,000
892,18;98,000
892,73;-78,000
893,28;30,000
893,83;54,000
894,38;-1,0000
894,93;59,000
895,48;65,000
896,03;71,000
896,59;98,000
897,14;-19,000
897,69;12,000
898,24;-37,000
898,79;40,000
899,34;63,000
899,89;107,00
900,44;-51,000
900,99;53,000
901,53;-2,0000
902,08;92,000
902,63;34,000
903,18;39,000
903,73;48,000
904,28;-59,000
904,83;77,000
905,38;8,0000
905,93;-57,000
906,48;-77,000
907,03;-30,000
907,58;-16,000
908,13;-13,000
908,68;90,000
909,23;55,000
909,78;45,000
910,32;-4,0000
910,87;-9,0000
911,42;33,000
911,97;-52,000
912,52;103,00
913,07;104,00
913,62;37,000
914,17;2,0000
914,71;-14,000
915,26;-7,0000
915,81;31,000
916,36;24,000
916,91;3,0000
917,46;-16,000
918,00;-21,000
918,55;103,00
919,10;56,000
919,65;95,000
920,20;20,000
920,74;0
921,29;-98,000
921,84;27,000
922,39;2,0000
922,94;57,000
923,48;-63,000
924,03;-24,000
924,58;129,00
925,13;-59,000
925,67;81,000
926,22;7,0000
926,77;-32,000
927,32;-13,000
927,86;101,00
928,41;-8,0000
928,96;6,0000
929,50;112,00
930,05;119,00
930,60;64,000
931,15;-49,000
931,69;-41,000
932,24;43,000
932,79;-35,000
933,33;5,0000
933,88;225,00
934,43;37,000
934,97;-20,000
935,52;66,000
936,07;-182,00
936,61;53,000
937,16;-16,000
937,71;19,000
938,25;26,000
938,80;-22,000
939,34;16,000
939,89;-16,000
940,44;39,000
940,98;179,00
941,53;-22,000
942,07;-40,000
942,62;-13,000
943,17;-33,000
943,71;-54,000
944,26;37,000
944,80;81,000
945,35;-11,000
945,89;-6,0000
946,44;29,000
946,99;105,00
947,53;107,00
948,08;130,00
948,62;-31,000
949,17;-40,000
949,71;124,00
950,26;-88,000
950,80;0
951,35;-5,0000
951,89;24,000
952,44;113,00
952,98;-21,000
953,53;20,000
954,07;40,000
954,62;29,000
955,16;21,000
955,71;-4,0000
956,25;-3,0000
956,79;-34,000
957,34;34,000
957,88;-18,000
958,43;45,000
958,97;-20,000
959,52;-81,000
960,06;-1,0000
960,60;50,000
961,15;45,000
961,69;-7,0000
962,24;-265,00
962,78;-61,000
963,32;-77,000
963,87;-21,000
964,41;95,000
964,96;10,0000
965,50;15,000
966,04;-8,0000
966,59;-133,00
967,13;-3,0000
967,67;-38,000
968,22;27,000
968,76;-2,0000
969,30;-8,0000
969,85;69,000
970,39;46,000
970,93;-36,000
971,47;21,000
972,02;48,000
972,56;-30,000
973,10;-98,000
973,65;-35,000
974,19;42,000
974,73;-44,000
975,27;3,0000
975,82;2,0000
976,36;49,000
976,90;-67,000
977,44;-38,000
977,99;37,000
978,53;-52,000
979,07;70,000
979,61;38,000
980,16;-75,000
980,70;-7,0000
981,24;129,00
981,78;-4,0000
982,32;137,00
982,87;113,00
983,41;22,000
983,95;-7,0000
984,49;-41,000
985,03;74,000
985,57;-73,000
986,12;-75,000
986,66;58,000
987,20;34,000
987,74;40,000
988,28;-41,000
988,82;-10,0000
989,36;-12,000
989,91;-71,000
990,45;113,00
990,99;-46,000
991,53;-4,0000
992,07;24,000
992,61;27,000
993,15;1,0000
993,69;-37,000
994,23;-98,000
994,77;53,000
995,31;9,0000
995,86;11,000
996,40;85,000
996,94;17,000
997,48;2,0000
998,02;-16,000
998,56;12,000
999,10;-24,000
999,64;-84,000
1000,18;15,000
1000,72;30,000
1001,26;-84,000
1001,80;143,00
1002,34;30,000
1002,88;25,000
1003,42;-37,000
1003,96;0
1004,50;-19,000
1005,04;55,000
1005,58;-3,0000
1006,12;51,000
1006,66;-2,0000
1007,20;13,000
1007,73;8,0000
1008,27;32,000
1008,81;143,00
1009,35;23,000
1009,89;-32,000
1010,43;48,000
1010,97;-35,000
1011,51;-105,00
1012,05;-58,000
1012,59;54,000
1013,13;104,00
1013,66;112,00
1014,20;-34,000
1014,74;73,000
1015,28;-14,000
1015,82;32,000
1016,36;-79,000
1016,90;-51,000
1017,43;-74,000
1017,97;37,000
1018,51;64,000
1019,05;69,000
1019,59;149,00
1020,13;76,000
1020,66;-81,000
1021,20;-49,000
1021,74;141,00
1022,28;103,00
1022,81;-25,000
1023,35;52,000
1023,89;-46,000
1024,43;83,000
1024,97;21,000
1025,50;-47,000
1026,04;6,0000
1026,58;39,000
1027,12;-28,000
1027,65;21,000
1028,19;-30,000
1028,73;8,0000
1029,26;-7,0000
1029,80;93,000
1030,34;144,00
1030,88;-40,000
1031,41;-91,000
1031,95;126,00
1032,49;69,000
1033,02;-8,0000
1033,56;26,000
1034,10;134,00
1034,63;76,000
1035,17;-45,000
1035,71;-16,000
1036,24;49,000
1036,78;20,000
1037,32;26,000
1037,85;39,000
1038,39;122,00
1038,92;66,000
1039,46;-30,000
1040,00;68,000
1040,53;87,000
1041,07;75,000
1041,60;-90,000
1042,14;104,00
1042,68;64,000
1043,21;-13,000
1043,75;-3,0000
1044,28;-37,000
1044,82;23,000
1045,35;-84,000
1045,89;-51,000
1046,42;41,000
1046,96;-41,000
1047,49;27,000
1048,03;-20,000
1048,57;-77,000
1049,10;-39,000
1049,64;-219,00
1050,17;53,000
1050,70;-42,000
1051,24;15,000
1051,77;-16,000
1052,31;-98,000
1052,84;21,000
1053,38;17,000
1053,91;41,000
1054,45;104,00
1054,98;-24,000
1055,52;49,000
1056,05;40,000
1056,59;10,0000
1057,12;-70,000
1057,65;-68,000
1058,19;-4,0000
1058,72;-29,000
1059,26;57,000
1059,79;-60,000
1060,32;-3,0000
1060,86;47,000
1061,39;-13,000
1061,93;-35,000
1062,46;-76,000
1062,99;-7,0000
1063,53;97,000
1064,06;-68,000
1064,59;124,00
1065,13;-32,000
1065,66;23,000
1066,19;124,00
1066,73;-37,000
1067,26;6,0000
1067,79;34,000
1068,33;-46,000
1068,86;-33,000
1069,39;-106,00
1069,92;103,00
1070,46;37,000
1070,99;-83,000
1071,52;36,000
1072,05;33,000
1072,59;52,000
1073,12;11,000
1073,65;127,00
1074,18;24,000
1074,72;11,000
1075,25;16,000
1075,78;-1,0000
1076,31;-21,000
1076,85;51,000
1077,38;-43,000
1077,91;-26,000
1078,44;-9,0000
1078,97;48,000
1079,51;-60,000
1080,04;62,000
1080,57;29,000
1081,10;105,00
1081,63;6,0000
1082,16;-42,000
1082,70;-87,000
1083,23;-39,000
1083,76;35,000
1084,29;79,000
1084,82;64,000
1085,35;-147,00
1085,88;-37,000
1086,41;17,000
1086,94;-116,00
1087,48;77,000
1088,01;-24,000
1088,54;28,000
1089,07;-11,000
1089,60;-26,000
1090,13;86,000
1090,66;-10,0000
1091,19;49,000
1091,72;19,000
1092,25;34,000
1092,78;70,000
1093,31;-57,000
1093,84;45,000
1094,37;-48,000
1094,90;13,000
1095,43;83,000
1095,96;12,000
1096,49;-33,000
1097,02;-56,000
1097,55;-20,000
1098,08;62,000
1098,61;14,000
1099,14;65,000
1099,67;47,000
1100,20;66,000
