M- 27 del, 3
Integration time: 5000 ms
Average: 1 scans
Nr of pixels used for smoothing: 0
Data measured with spectrometer serial number: 0604021S1
Wave   ;Sample
[nm]   ;[counts]
173,70;20,000
174,30;12,000
174,90;24,000
175,50;44,000
176,10;84,000
176,70;3,0000
177,30;3,0000
177,90;65,000
178,50;13,000
179,10;60,000
179,70;-4,0000
180,30;22,000
180,89;8,0000
181,49;3,0000
182,09;-21,000
182,69;-66,000
183,29;-16,000
183,89;-31,000
184,49;43,000
185,09;53,000
185,69;-2,0000
186,29;24,000
186,89;29,000
187,48;-32,000
188,08;-67,000
188,68;-4,0000
189,28;32,000
189,88;14,000
190,48;18,000
191,08;71,000
191,68;86,000
192,28;17,000
192,87;-18,000
193,47;32,000
194,07;1,0000
194,67;40,000
195,27;1,0000
195,87;-17,000
196,47;-46,000
197,06;10,0000
197,66;-24,000
198,26;-55,000
198,86;-91,000
199,46;45,000
200,06;48,000
200,66;-67,000
201,25;-86,000
201,85;37,000
202,45;-67,000
203,05;-31,000
203,65;-15,000
204,24;-69,000
204,84;-24,000
205,44;3,0000
206,04;-49,000
206,64;-12,000
207,24;29,000
207,83;-25,000
208,43;25,000
209,03;135,00
209,63;-9,0000
210,22;105,00
210,82;-126,00
211,42;-73,000
212,02;-91,000
212,62;-4,0000
213,21;-57,000
213,81;-1,0000
214,41;22,000
215,01;-4,0000
215,60;60,000
216,20;42,000
216,80;-18,000
217,40;-32,000
218,00;187,00
218,59;-48,000
219,19;56,000
219,79;101,00
220,38;-1,0000
220,98;-42,000
221,58;51,000
222,18;9,0000
222,77;21,000
223,37;-14,000
223,97;-46,000
224,57;-55,000
225,16;32,000
225,76;52,000
226,36;6,0000
226,95;98,000
227,55;11,000
228,15;65,000
228,75;-1,0000
229,34;-69,000
229,94;64,000
230,54;67,000
231,13;-72,000
231,73;111,00
232,33;-63,000
232,92;119,00
233,52;17,000
234,12;-27,000
234,71;63,000
235,31;24,000
235,91;-7,0000
236,50;39,000
237,10;79,000
237,70;-50,000
238,29;18,000
238,89;-24,000
239,49;12,000
240,08;12,000
240,68;-36,000
241,28;89,000
241,87;-14,000
242,47;105,00
243,06;35,000
243,66;28,000
244,26;37,000
244,85;-61,000
245,45;-38,000
246,05;53,000
246,64;-26,000
247,24;-33,000
247,83;22,000
248,43;73,000
249,03;25,000
249,62;-100,000
250,22;12,000
250,81;23,000
251,41;4,0000
252,01;-54,000
252,60;-61,000
253,20;80,000
253,79;72,000
254,39;30,000
254,98;11,000
255,58;19,000
256,18;117,00
256,77;-51,000
257,37;-29,000
257,96;-47,000
258,56;-23,000
259,15;50,000
259,75;1,0000
260,34;-61,000
260,94;-29,000
261,53;57,000
262,13;66,000
262,73;17,000
263,32;22,000
263,92;-100,000
264,51;-4,0000
265,11;4,0000
265,70;56,000
266,30;-90,000
266,89;-43,000
267,49;32,000
268,08;17,000
268,68;-23,000
269,27;39,000
269,87;32,000
270,46;-70,000
271,06;120,00
271,65;9,0000
272,25;-71,000
272,84;70,000
273,44;66,000
274,03;47,000
274,62;33,000
275,22;89,000
275,81;-34,000
276,41;-45,000
277,00;33,000
277,60;64,000
278,19;-56,000
278,79;40,000
279,38;-1,0000
279,98;-47,000
280,57;-13,000
281,16;13,000
281,76;45,000
282,35;10,0000
282,95;-5,0000
283,54;30,000
284,14;-24,000
284,73;-7,0000
285,32;-77,000
285,92;40,000
286,51;40,000
287,11;-19,000
287,70;-42,000
288,29;-7,0000
288,89;-63,000
289,48;28,000
290,08;-79,000
290,67;60,000
291,26;-109,00
291,86;64,000
292,45;-30,000
293,04;-55,000
293,64;54,000
294,23;29,000
294,83;27,000
295,42;44,000
296,01;-79,000
296,61;31,000
297,20;38,000
297,79;78,000
298,39;36,000
298,98;108,00
299,57;167,00
300,17;24,000
300,76;14,000
301,35;-33,000
301,95;11,000
302,54;7,0000
303,13;44,000
303,73;1,0000
304,32;90,000
304,91;64,000
305,51;46,000
306,10;40,000
306,69;18,000
307,28;63,000
307,88;83,000
308,47;-14,000
309,06;18,000
309,66;38,000
310,25;16,000
310,84;61,000
311,43;40,000
312,03;133,00
312,62;123,00
313,21;187,00
313,81;231,00
314,40;361,00
314,99;600,00
315,58;897,00
316,18;906,00
316,77;844,00
317,36;849,00
317,95;715,00
318,54;622,00
319,14;515,00
319,73;174,00
320,32;62,000
320,91;41,000
321,51;69,000
322,10;12,000
322,69;57,000
323,28;89,000
323,87;9,0000
324,47;4,0000
325,06;-76,000
325,65;47,000
326,24;75,000
326,83;79,000
327,43;122,00
328,02;140,00
328,61;148,00
329,20;19,000
329,79;108,00
330,39;81,000
330,98;66,000
331,57;138,00
332,16;187,00
332,75;193,00
333,34;270,00
333,93;279,00
334,53;338,00
335,12;657,00
335,71;1758,0
336,30;4794,0
336,89;7033,0
337,48;7199,0
338,07;7368,0
338,67;7243,0
339,26;6899,0
339,85;5930,0
340,44;3699,0
341,03;577,00
341,62;114,00
342,21;247,00
342,80;126,00
343,39;115,00
343,99;21,000
344,58;2,0000
345,17;78,000
345,76;79,000
346,35;60,000
346,94;43,000
347,53;40,000
348,12;244,00
348,71;142,00
349,30;161,00
349,89;249,00
350,48;230,00
351,07;379,00
351,66;510,00
352,26;1051,0
352,85;1937,0
353,44;2591,0
354,03;2611,0
354,62;2730,0
355,21;2957,0
355,80;3777,0
356,39;5440,0
356,98;8749,0
357,57;9693,0
358,16;9973,0
358,75;9820,0
359,34;9730,0
359,93;8881,0
360,52;7365,0
361,11;3793,0
361,70;333,00
362,29;114,00
362,88;-9,0000
363,47;133,00
364,06;65,000
364,65;149,00
365,24;105,00
365,83;128,00
366,42;223,00
367,01;270,00
367,60;200,00
368,19;233,00
368,78;343,00
369,37;259,00
369,95;463,00
370,54;879,00
371,13;876,00
371,72;966,00
372,31;1041,0
372,90;1013,0
373,49;1261,0
374,08;1535,0
374,67;2507,0
375,26;3370,0
375,85;3496,0
376,44;3566,0
377,03;3407,0
377,61;3519,0
378,20;3218,0
378,79;2901,0
379,38;2908,0
379,97;5021,0
380,56;5431,0
381,15;5553,0
381,74;5432,0
382,33;5261,0
382,91;4625,0
383,50;3429,0
384,09;1169,0
384,68;147,00
385,27;162,00
385,86;92,000
386,45;157,00
387,03;142,00
387,62;117,00
388,21;39,000
388,80;218,00
389,39;276,00
389,98;196,00
390,57;201,00
391,15;253,00
391,74;242,00
392,33;325,00
392,92;339,00
393,51;711,00
394,09;734,00
394,68;612,00
395,27;698,00
395,86;728,00
396,45;799,00
397,03;690,00
397,62;530,00
398,21;795,00
398,80;1239,0
399,39;1768,0
399,97;2071,0
400,56;2030,0
401,15;2052,0
401,74;1939,0
402,32;1775,0
402,91;1435,0
403,50;840,00
404,09;758,00
404,67;1119,0
405,26;2038,0
405,85;2219,0
406,44;2473,0
407,02;2536,0
407,61;2229,0
408,20;2197,0
408,78;1891,0
409,37;1174,0
409,96;496,00
410,55;421,00
411,13;293,00
411,72;267,00
412,31;300,00
412,89;277,00
413,48;218,00
414,07;211,00
414,65;342,00
415,24;339,00
415,83;259,00
416,42;198,00
417,00;209,00
417,59;73,000
418,18;239,00
418,76;379,00
419,35;596,00
419,94;745,00
420,52;565,00
421,11;735,00
421,69;694,00
422,28;735,00
422,87;511,00
423,45;400,00
424,04;210,00
424,63;314,00
425,21;449,00
425,80;674,00
426,38;1116,0
426,97;1312,0
427,56;1327,0
428,14;1281,0
428,73;1315,0
429,31;1183,0
429,90;752,00
430,49;387,00
431,07;268,00
431,66;170,00
432,24;309,00
432,83;373,00
433,42;627,00
434,00;961,00
434,59;809,00
435,17;1099,0
435,76;847,00
436,34;982,00
436,93;863,00
437,51;667,00
438,10;281,00
438,69;21,000
439,27;24,000
439,86;110,00
440,44;110,00
441,03;148,00
441,61;203,00
442,20;92,000
442,78;128,00
443,37;183,00
443,95;118,00
444,54;12,000
445,12;107,00
445,71;203,00
446,29;-101,00
446,88;0
447,46;75,000
448,05;249,00
448,63;268,00
449,22;263,00
449,80;230,00
450,39;179,00
450,97;190,00
451,56;40,000
452,14;92,000
452,72;36,000
453,31;12,000
453,89;105,00
454,48;37,000
455,06;178,00
455,65;110,00
456,23;299,00
456,81;484,00
457,40;392,00
457,98;336,00
458,57;312,00
459,15;323,00
459,74;276,00
460,32;192,00
460,90;141,00
461,49;59,000
462,07;40,000
462,66;95,000
463,24;28,000
463,82;50,000
464,41;189,00
464,99;199,00
465,57;33,000
466,16;401,00
466,74;289,00
467,33;288,00
467,91;264,00
468,49;168,00
469,08;148,00
469,66;145,00
470,24;130,00
470,83;-10,0000
471,41;46,000
471,99;3,0000
472,58;98,000
473,16;52,000
473,74;75,000
474,33;23,000
474,91;13,000
475,49;67,000
476,08;-20,000
476,66;-22,000
477,24;98,000
477,82;60,000
478,41;99,000
478,99;149,00
479,57;58,000
480,16;-51,000
480,74;213,00
481,32;4,0000
481,90;2,0000
482,49;138,00
483,07;101,00
483,65;129,00
484,23;160,00
484,82;81,000
485,40;31,000
485,98;11,000
486,56;64,000
487,15;54,000
487,73;39,000
488,31;67,000
488,89;79,000
489,47;-11,000
490,06;13,000
490,64;-24,000
491,22;44,000
491,80;49,000
492,39;39,000
492,97;111,00
493,55;231,00
494,13;97,000
494,71;37,000
495,29;40,000
495,88;-11,000
496,46;7,0000
497,04;-53,000
497,62;46,000
498,20;47,000
498,78;23,000
499,37;-26,000
499,95;-80,000
500,53;-5,0000
501,11;33,000
501,69;163,00
502,27;42,000
502,85;58,000
503,44;4,0000
504,02;84,000
504,60;80,000
505,18;-15,000
505,76;38,000
506,34;64,000
506,92;-13,000
507,50;47,000
508,08;78,000
508,67;61,000
509,25;-9,0000
509,83;26,000
510,41;-2,0000
510,99;28,000
511,57;-88,000
512,15;23,000
512,73;-19,000
513,31;46,000
513,89;78,000
514,47;34,000
515,05;67,000
515,63;39,000
516,21;3,0000
516,79;-9,0000
517,38;-63,000
517,96;-12,000
518,54;53,000
519,12;-25,000
519,70;38,000
520,28;36,000
520,86;-32,000
521,44;20,000
522,02;-63,000
522,60;70,000
523,18;74,000
523,76;-24,000
524,34;6,0000
524,92;120,00
525,50;66,000
526,08;-130,00
526,66;-42,000
527,24;22,000
527,82;-25,000
528,39;52,000
528,97;34,000
529,55;-54,000
530,13;4,0000
530,71;117,00
531,29;41,000
531,87;-22,000
532,45;-34,000
533,03;-19,000
533,61;154,00
534,19;78,000
534,77;83,000
535,35;87,000
535,93;-9,0000
536,51;10,0000
537,08;301,00
537,66;-34,000
538,24;7,0000
538,82;6,0000
539,40;10,0000
539,98;34,000
540,56;73,000
541,14;-5,0000
541,72;58,000
542,29;-53,000
542,87;-18,000
543,45;69,000
544,03;17,000
544,61;113,00
545,19;-101,00
545,77;56,000
546,34;-68,000
546,92;72,000
547,50;-85,000
548,08;147,00
548,66;95,000
549,23;-39,000
549,81;-1,0000
550,39;-50,000
550,97;118,00
551,55;24,000
552,13;59,000
552,70;-107,00
553,28;34,000
553,86;-16,000
554,44;4,0000
555,01;0
555,59;86,000
556,17;22,000
556,75;-20,000
557,33;-26,000
557,90;29,000
558,48;-37,000
559,06;-56,000
559,64;35,000
560,21;-65,000
560,79;18,000
561,37;-28,000
561,95;-35,000
562,52;-41,000
563,10;9,0000
563,68;23,000
564,25;20,000
564,83;130,00
565,41;40,000
565,99;-11,000
566,56;28,000
567,14;79,000
567,72;134,00
568,29;13,000
568,87;10,0000
569,45;69,000
570,02;14,000
570,60;4,0000
571,18;-67,000
571,75;36,000
572,33;-27,000
572,91;61,000
573,48;2,0000
574,06;118,00
574,64;-20,000
575,21;14,000
575,79;81,000
576,37;130,00
576,94;58,000
577,52;54,000
578,09;-9,0000
578,67;-10,0000
579,25;101,00
579,82;22,000
580,40;13,000
580,97;-40,000
581,55;119,00
582,13;39,000
582,70;23,000
583,28;42,000
583,85;-25,000
584,43;65,000
585,01;7,0000
585,58;-8,0000
586,16;-29,000
586,73;30,000
587,31;3,0000
587,88;4,0000
588,46;-97,000
589,03;-33,000
589,61;-28,000
590,18;-1,0000
590,76;73,000
591,34;17,000
591,91;13,000
592,49;19,000
593,06;56,000
593,64;17,000
594,21;-1,0000
594,79;5,0000
595,36;17,000
595,94;91,000
596,51;36,000
597,09;21,000
597,66;90,000
598,24;129,00
598,81;-2,0000
599,38;59,000
599,96;125,00
600,53;85,000
601,11;110,00
601,68;85,000
602,26;65,000
602,83;12,000
603,41;76,000
603,98;79,000
604,56;96,000
605,13;25,000
605,70;50,000
606,28;135,00
606,85;-68,000
607,43;23,000
608,00;20,000
608,57;87,000
609,15;79,000
609,72;9,0000
610,30;57,000
610,87;91,000
611,44;-84,000
612,02;-20,000
612,59;-40,000
613,16;5,0000
613,74;-46,000
614,31;42,000
614,89;-39,000
615,46;-41,000
616,03;19,000
616,61;26,000
617,18;59,000
617,75;-18,000
618,33;161,00
618,90;-168,00
619,47;-25,000
620,05;24,000
620,62;74,000
621,19;59,000
621,77;-8,0000
622,34;81,000
622,91;91,000
623,48;168,00
624,06;90,000
624,63;72,000
625,20;116,00
625,78;48,000
626,35;52,000
626,92;39,000
627,49;-24,000
628,07;-44,000
628,64;29,000
629,21;46,000
629,78;-57,000
630,36;-18,000
630,93;23,000
631,50;-32,000
632,07;-79,000
632,65;54,000
633,22;64,000
633,79;96,000
634,36;-4,0000
634,93;-10,0000
635,51;133,00
636,08;9,0000
636,65;18,000
637,22;-25,000
637,79;86,000
638,37;43,000
638,94;-34,000
639,51;-19,000
640,08;39,000
640,65;23,000
641,22;43,000
641,80;85,000
642,37;178,00
642,94;-42,000
643,51;160,00
644,08;-30,000
644,65;6,0000
645,22;3,0000
645,80;45,000
646,37;-6,0000
646,94;-7,0000
647,51;147,00
648,08;110,00
648,65;12,000
649,22;22,000
649,79;-4,0000
650,36;25,000
650,93;94,000
651,51;134,00
652,08;-15,000
652,65;96,000
653,22;88,000
653,79;72,000
654,36;70,000
654,93;162,00
655,50;109,00
656,07;173,00
656,64;1,0000
657,21;84,000
657,78;224,00
658,35;118,00
658,92;107,00
659,49;7,0000
660,06;144,00
660,63;91,000
661,20;179,00
661,77;154,00
662,34;204,00
662,91;186,00
663,48;130,00
664,05;76,000
664,62;96,000
665,19;145,00
665,76;103,00
666,33;133,00
666,90;87,000
667,47;113,00
668,04;74,000
668,61;140,00
669,18;109,00
669,75;258,00
670,32;149,00
670,89;181,00
671,46;117,00
672,03;110,00
672,60;129,00
673,17;179,00
673,74;-256,00
674,30;228,00
674,87;170,00
675,44;91,000
676,01;94,000
676,58;87,000
677,15;175,00
677,72;141,00
678,29;165,00
678,86;122,00
679,42;165,00
679,99;112,00
680,56;95,000
681,13;118,00
681,70;119,00
682,27;100,000
682,84;156,00
683,40;121,00
683,97;-5,0000
684,54;121,00
685,11;14,000
685,68;64,000
686,25;60,000
686,81;65,000
687,38;-50,000
687,95;10,0000
688,52;-9,0000
689,09;-43,000
689,65;80,000
690,22;59,000
690,79;24,000
691,36;39,000
691,92;74,000
692,49;48,000
693,06;18,000
693,63;37,000
694,20;39,000
694,76;78,000
695,33;9,0000
695,90;19,000
696,47;109,00
697,03;-125,00
697,60;36,000
698,17;-32,000
698,73;44,000
699,30;64,000
699,87;-117,00
700,44;72,000
701,00;-36,000
701,57;68,000
702,14;85,000
702,70;23,000
703,27;-43,000
703,84;-19,000
704,40;32,000
704,97;20,000
705,54;0
706,10;85,000
706,67;-62,000
707,24;43,000
707,80;31,000
708,37;37,000
708,94;-69,000
709,50;81,000
710,07;21,000
710,64;65,000
711,20;88,000
711,77;41,000
712,33;-56,000
712,90;-88,000
713,47;-4,0000
714,03;133,00
714,60;93,000
715,16;82,000
715,73;75,000
716,30;47,000
716,86;-30,000
717,43;24,000
717,99;57,000
718,56;63,000
719,12;-13,000
719,69;16,000
720,26;79,000
720,82;-3,0000
721,39;6,0000
721,95;-90,000
722,52;1,0000
723,08;48,000
723,65;75,000
724,21;61,000
724,78;34,000
725,34;13,000
725,91;51,000
726,47;126,00
727,04;-9,0000
727,60;85,000
728,17;53,000
728,73;-2,0000
729,30;48,000
729,86;71,000
730,43;134,00
730,99;117,00
731,56;-34,000
732,12;-14,000
732,68;40,000
733,25;117,00
733,81;154,00
734,38;47,000
734,94;-49,000
735,51;64,000
736,07;152,00
736,63;31,000
737,20;62,000
737,76;87,000
738,33;109,00
738,89;34,000
739,46;91,000
740,02;68,000
740,58;103,00
741,15;23,000
741,71;71,000
742,27;40,000
742,84;77,000
743,40;24,000
743,97;-32,000
744,53;129,00
745,09;103,00
745,66;25,000
746,22;159,00
746,78;92,000
747,35;114,00
747,91;161,00
748,47;149,00
749,04;113,00
749,60;126,00
750,16;168,00
750,72;222,00
751,29;36,000
751,85;135,00
752,41;90,000
752,98;45,000
753,54;-40,000
754,10;-45,000
754,66;53,000
755,23;54,000
755,79;77,000
756,35;97,000
756,91;59,000
757,48;85,000
758,04;97,000
758,60;72,000
759,16;22,000
759,73;60,000
760,29;115,00
760,85;10,0000
761,41;25,000
761,98;131,00
762,54;45,000
763,10;138,00
763,66;11,000
764,22;8,0000
764,79;44,000
765,35;4,0000
765,91;154,00
766,47;70,000
767,03;84,000
767,59;-56,000
768,16;8,0000
768,72;24,000
769,28;33,000
769,84;190,00
770,40;-19,000
770,96;45,000
771,52;105,00
772,09;131,00
772,65;120,00
773,21;127,00
773,77;65,000
774,33;127,00
774,89;74,000
775,45;134,00
776,01;-7,0000
776,57;144,00
777,13;80,000
777,70;18,000
778,26;60,000
778,82;-33,000
779,38;30,000
779,94;-89,000
780,50;14,000
781,06;-27,000
781,62;-18,000
782,18;-80,000
782,74;31,000
783,30;135,00
783,86;4,0000
784,42;-20,000
784,98;4,0000
785,54;10,0000
786,10;72,000
786,66;37,000
787,22;-36,000
787,78;14,000
788,34;-36,000
788,90;65,000
789,46;3,0000
790,02;-14,000
790,58;-7,0000
791,14;55,000
791,70;4,0000
792,26;11,000
792,82;-73,000
793,38;329,00
793,94;-3,0000
794,50;-9,0000
795,06;2,0000
795,62;81,000
796,17;59,000
796,73;6,0000
797,29;20,000
797,85;-51,000
798,41;7,0000
798,97;63,000
799,53;34,000
800,09;-24,000
800,65;-78,000
801,21;13,000
801,76;25,000
802,32;-21,000
802,88;-55,000
803,44;30,000
804,00;0
804,56;57,000
805,12;17,000
805,67;-7,0000
806,23;-24,000
806,79;49,000
807,35;46,000
807,91;61,000
808,46;-27,000
809,02;-22,000
809,58;-83,000
810,14;-56,000
810,70;-76,000
811,26;-88,000
811,81;75,000
812,37;-27,000
812,93;4,0000
813,49;31,000
814,04;-31,000
814,60;25,000
815,16;86,000
815,72;6,0000
816,27;22,000
816,83;-21,000
817,39;44,000
817,95;54,000
818,50;13,000
819,06;-21,000
819,62;8,0000
820,18;5,0000
820,73;33,000
821,29;-2,0000
821,85;38,000
822,40;-26,000
822,96;133,00
823,52;-47,000
824,07;-221,00
824,63;-88,000
825,19;19,000
825,74;118,00
826,30;108,00
826,86;32,000
827,41;11,000
827,97;40,000
828,53;15,000
829,08;27,000
829,64;31,000
830,20;88,000
830,75;-26,000
831,31;123,00
831,86;24,000
832,42;42,000
832,98;57,000
833,53;17,000
834,09;-16,000
834,64;13,000
835,20;108,00
835,76;-26,000
836,31;62,000
836,87;230,00
837,42;-18,000
837,98;8,0000
838,53;-9,0000
839,09;-214,00
839,64;104,00
840,20;-40,000
840,75;2,0000
841,31;-31,000
841,87;-57,000
842,42;130,00
842,98;57,000
843,53;-17,000
844,09;47,000
844,64;55,000
845,20;-31,000
845,75;37,000
846,31;34,000
846,86;-4,0000
847,41;57,000
847,97;-59,000
848,52;77,000
849,08;101,00
849,63;32,000
850,19;56,000
850,74;-10,0000
851,30;-1,0000
851,85;167,00
852,41;-25,000
852,96;88,000
853,51;-20,000
854,07;30,000
854,62;27,000
855,18;-81,000
855,73;-7,0000
856,28;16,000
856,84;-67,000
857,39;21,000
857,95;30,000
858,50;18,000
859,05;58,000
859,61;36,000
860,16;13,000
860,71;8,0000
861,27;-45,000
861,82;67,000
862,37;24,000
862,93;63,000
863,48;-52,000
864,03;29,000
864,59;-42,000
865,14;-83,000
865,69;32,000
866,25;14,000
866,80;110,00
867,35;21,000
867,90;137,00
868,46;-15,000
869,01;52,000
869,56;-9,0000
870,12;-3,0000
870,67;1,0000
871,22;18,000
871,77;86,000
872,33;87,000
872,88;29,000
873,43;74,000
873,98;46,000
874,54;-10,0000
875,09;136,00
875,64;8,0000
876,19;77,000
876,74;14,000
877,30;81,000
877,85;41,000
878,40;18,000
878,95;-9,0000
879,50;86,000
880,06;-121,00
880,61;37,000
881,16;12,000
881,71;16,000
882,26;51,000
882,81;82,000
883,37;42,000
883,92;-12,000
884,47;-37,000
885,02;-6,0000
885,57;-39,000
886,12;71,000
886,67;23,000
887,22;89,000
887,78;42,000
888,33;73,000
888,88;-20,000
889,43;4,0000
889,98;79,000
890,53;75,000
891,08;5,0000
891,63;112,00
892,18;9,0000
892,73;3,0000
893,28;16,000
893,83;12,000
894,38;9,0000
894,93;39,000
895,48;76,000
896,03;52,000
896,59;114,00
897,14;31,000
897,69;34,000
898,24;-36,000
898,79;90,000
899,34;-46,000
899,89;129,00
900,44;-16,000
900,99;-68,000
901,53;-3,0000
902,08;57,000
902,63;-1,0000
903,18;110,00
903,73;47,000
904,28;5,0000
904,83;57,000
905,38;13,000
905,93;4,0000
906,48;-37,000
907,03;18,000
907,58;-66,000
908,13;-24,000
908,68;43,000
909,23;79,000
909,78;-32,000
910,32;44,000
910,87;28,000
911,42;-32,000
911,97;-66,000
912,52;6,0000
913,07;33,000
913,62;33,000
914,17;41,000
914,71;-11,000
915,26;-32,000
915,81;11,000
916,36;-78,000
916,91;29,000
917,46;10,0000
918,00;4,0000
918,55;24,000
919,10;18,000
919,65;56,000
920,20;0
920,74;-43,000
921,29;-68,000
921,84;-42,000
922,39;-88,000
922,94;-64,000
923,48;59,000
924,03;0
924,58;20,000
925,13;-36,000
925,67;35,000
926,22;-10,0000
926,77;20,000
927,32;20,000
927,86;-61,000
928,41;-86,000
928,96;-41,000
929,50;31,000
930,05;79,000
930,60;53,000
931,15;-21,000
931,69;-5,0000
932,24;43,000
932,79;-1,0000
933,33;-11,000
933,88;132,00
934,43;-31,000
934,97;-46,000
935,52;158,00
936,07;-121,00
936,61;0
937,16;45,000
937,71;3,0000
938,25;-25,000
938,80;-46,000
939,34;-30,000
939,89;-56,000
940,44;79,000
940,98;66,000
941,53;-40,000
942,07;-60,000
942,62;-7,0000
943,17;-64,000
943,71;-39,000
944,26;-14,000
944,80;43,000
945,35;-90,000
945,89;-38,000
946,44;24,000
946,99;72,000
947,53;88,000
948,08;67,000
948,62;31,000
949,17;-47,000
949,71;19,000
950,26;-32,000
950,80;-24,000
951,35;-2,0000
951,89;29,000
952,44;73,000
952,98;-35,000
953,53;-21,000
954,07;22,000
954,62;20,000
955,16;-89,000
955,71;-28,000
956,25;4,0000
956,79;-52,000
957,34;104,00
957,88;-19,000
958,43;23,000
958,97;-53,000
959,52;-72,000
960,06;19,000
960,60;-19,000
961,15;-18,000
961,69;48,000
962,24;-287,00
962,78;0
963,32;26,000
963,87;46,000
964,41;63,000
964,96;-47,000
965,50;41,000
966,04;-88,000
966,59;-147,00
967,13;-6,0000
967,67;25,000
968,22;17,000
968,76;-44,000
969,30;-18,000
969,85;-80,000
970,39;33,000
970,93;-75,000
971,47;-32,000
972,02;56,000
972,56;-57,000
973,10;-65,000
973,65;-21,000
974,19;-52,000
974,73;-59,000
975,27;72,000
975,82;23,000
976,36;-84,000
976,90;-10,0000
977,44;63,000
977,99;-3,0000
978,53;15,000
979,07;61,000
979,61;-22,000
980,16;-83,000
980,70;-43,000
981,24;99,000
981,78;-42,000
982,32;116,00
982,87;5,0000
983,41;4,0000
983,95;-72,000
984,49;-64,000
985,03;70,000
985,57;-30,000
986,12;3,0000
986,66;165,00
987,20;-14,000
987,74;30,000
988,28;23,000
988,82;22,000
989,36;-24,000
989,91;-52,000
990,45;-11,000
990,99;54,000
991,53;-25,000
992,07;36,000
992,61;-24,000
993,15;59,000
993,69;30,000
994,23;-91,000
994,77;-33,000
995,31;16,000
995,86;-48,000
996,40;73,000
996,94;51,000
997,48;-36,000
998,02;-53,000
998,56;17,000
999,10;-19,000
999,64;15,000
1000,18;-7,0000
1000,72;21,000
1001,26;4,0000
1001,80;110,00
1002,34;48,000
1002,88;-35,000
1003,42;-43,000
1003,96;111,00
1004,50;-32,000
1005,04;69,000
1005,58;-67,000
1006,12;26,000
1006,66;-50,000
1007,20;39,000
1007,73;57,000
1008,27;-85,000
1008,81;5,0000
1009,35;-9,0000
1009,89;-2,0000
1010,43;88,000
1010,97;-2,0000
1011,51;-67,000
1012,05;-4,0000
1012,59;-37,000
1013,13;46,000
1013,66;-14,000
1014,20;-4,0000
1014,74;100,000
1015,28;-11,000
1015,82;-23,000
1016,36;26,000
1016,90;-26,000
1017,43;-3,0000
1017,97;-112,00
1018,51;-5,0000
1019,05;93,000
1019,59;82,000
1020,13;-5,0000
1020,66;-104,00
1021,20;-68,000
1021,74;28,000
1022,28;62,000
1022,81;35,000
1023,35;-2,0000
1023,89;0
1024,43;26,000
1024,97;29,000
1025,50;2,0000
1026,04;4,0000
1026,58;3,0000
1027,12;-161,00
1027,65;49,000
1028,19;-35,000
1028,73;19,000
1029,26;24,000
1029,80;101,00
1030,34;97,000
1030,88;9,0000
1031,41;-127,00
1031,95;35,000
1032,49;1,0000
1033,02;7,0000
1033,56;14,000
1034,10;96,000
1034,63;12,000
1035,17;-28,000
1035,71;-41,000
1036,24;-23,000
1036,78;-24,000
1037,32;24,000
1037,85;-68,000
1038,39;-16,000
1038,92;15,000
1039,46;-20,000
1040,00;124,00
1040,53;169,00
1041,07;76,000
1041,60;-106,00
1042,14;61,000
1042,68;46,000
1043,21;-9,0000
1043,75;-57,000
1044,28;-46,000
1044,82;61,000
1045,35;-9,0000
1045,89;-23,000
1046,42;14,000
1046,96;-75,000
1047,49;-51,000
1048,03;48,000
1048,57;48,000
1049,10;-62,000
1049,64;-250,00
1050,17;96,000
1050,70;-140,00
1051,24;23,000
1051,77;-75,000
1052,31;-66,000
1052,84;-28,000
1053,38;35,000
1053,91;54,000
1054,45;81,000
1054,98;-45,000
1055,52;41,000
1056,05;72,000
1056,59;-36,000
1057,12;-23,000
1057,65;-64,000
1058,19;-64,000
1058,72;-99,000
1059,26;48,000
1059,79;-93,000
1060,32;-34,000
1060,86;49,000
1061,39;78,000
1061,93;-8,0000
1062,46;-76,000
1062,99;-17,000
1063,53;36,000
1064,06;-14,000
1064,59;36,000
1065,13;37,000
1065,66;99,000
1066,19;82,000
1066,73;-43,000
1067,26;-59,000
1067,79;76,000
1068,33;-49,000
1068,86;-6,0000
1069,39;-53,000
1069,92;73,000
1070,46;29,000
1070,99;-25,000
1071,52;43,000
1072,05;46,000
1072,59;67,000
1073,12;-32,000
1073,65;60,000
1074,18;-41,000
1074,72;-34,000
1075,25;32,000
1075,78;32,000
1076,31;-28,000
1076,85;3,0000
1077,38;-44,000
1077,91;30,000
1078,44;37,000
1078,97;17,000
1079,51;-85,000
1080,04;-42,000
1080,57;20,000
1081,10;135,00
1081,63;-5,0000
1082,16;-54,000
1082,70;-23,000
1083,23;-105,00
1083,76;25,000
1084,29;75,000
1084,82;65,000
1085,35;-38,000
1085,88;-137,00
1086,41;-11,000
1086,94;32,000
1087,48;39,000
1088,01;-50,000
1088,54;-24,000
1089,07;25,000
1089,60;-23,000
1090,13;-45,000
1090,66;-36,000
1091,19;4,0000
1091,72;3,0000
1092,25;4,0000
1092,78;106,00
1093,31;-28,000
1093,84;25,000
1094,37;-13,000
1094,90;-24,000
1095,43;-3,0000
1095,96;23,000
1096,49;12,000
1097,02;-48,000
1097,55;26,000
1098,08;18,000
1098,61;-43,000
1099,14;95,000
1099,67;-76,000
1100,20;36,000
