M- 40 del, 4, sur
Integration time: 5000 ms
Average: 1 scans
Nr of pixels used for smoothing: 0
Data measured with spectrometer serial number: 0604021S1
Wave   ;Sample
[nm]   ;[counts]
173,70;-294,00
174,30;-8,0000
174,90;-15,000
175,50;-34,000
176,10;40,000
176,70;-49,000
177,30;17,000
177,90;-29,000
178,50;7,0000
179,10;-42,000
179,70;35,000
180,30;-21,000
180,89;32,000
181,49;-17,000
182,09;-11,000
182,69;-8,0000
183,29;-63,000
183,89;58,000
184,49;-24,000
185,09;189,00
185,69;63,000
186,29;-9,0000
186,89;38,000
187,48;-68,000
188,08;-15,000
188,68;21,000
189,28;10,0000
189,88;48,000
190,48;33,000
191,08;-71,000
191,68;1,0000
192,28;-2,0000
192,87;5,0000
193,47;79,000
194,07;44,000
194,67;17,000
195,27;29,000
195,87;99,000
196,47;18,000
197,06;31,000
197,66;-3,0000
198,26;2,0000
198,86;66,000
199,46;-12,000
200,06;49,000
200,66;4,0000
201,25;70,000
201,85;7,0000
202,45;-19,000
203,05;-29,000
203,65;-93,000
204,24;53,000
204,84;25,000
205,44;-159,00
206,04;-17,000
206,64;-40,000
207,24;74,000
207,83;-8,0000
208,43;-15,000
209,03;11,000
209,63;27,000
210,22;-20,000
210,82;84,000
211,42;-48,000
212,02;81,000
212,62;2,0000
213,21;-10,0000
213,81;-38,000
214,41;-69,000
215,01;33,000
215,60;-5,0000
216,20;133,00
216,80;-20,000
217,40;24,000
218,00;41,000
218,59;-4,0000
219,19;14,000
219,79;-31,000
220,38;93,000
220,98;20,000
221,58;-45,000
222,18;131,00
222,77;7,0000
223,37;0
223,97;-68,000
224,57;-67,000
225,16;56,000
225,76;20,000
226,36;-104,00
226,95;-70,000
227,55;48,000
228,15;82,000
228,75;-205,00
229,34;-139,00
229,94;-53,000
230,54;-7,0000
231,13;26,000
231,73;18,000
232,33;1,0000
232,92;29,000
233,52;38,000
234,12;118,00
234,71;11,000
235,31;-1,0000
235,91;35,000
236,50;3,0000
237,10;1,0000
237,70;-18,000
238,29;-18,000
238,89;-84,000
239,49;62,000
240,08;-9,0000
240,68;-55,000
241,28;-32,000
241,87;19,000
242,47;12,000
243,06;-32,000
243,66;-29,000
244,26;74,000
244,85;35,000
245,45;8,0000
246,05;15,000
246,64;-21,000
247,24;48,000
247,83;-27,000
248,43;79,000
249,03;-18,000
249,62;-47,000
250,22;-33,000
250,81;-73,000
251,41;72,000
252,01;102,00
252,60;62,000
253,20;-5,0000
253,79;45,000
254,39;2,0000
254,98;85,000
255,58;-55,000
256,18;38,000
256,77;52,000
257,37;76,000
257,96;-38,000
258,56;46,000
259,15;1,0000
259,75;-31,000
260,34;45,000
260,94;-16,000
261,53;9,0000
262,13;76,000
262,73;56,000
263,32;43,000
263,92;12,000
264,51;73,000
265,11;64,000
265,70;42,000
266,30;80,000
266,89;136,00
267,49;-50,000
268,08;-2,0000
268,68;39,000
269,27;30,000
269,87;30,000
270,46;122,00
271,06;11,000
271,65;66,000
272,25;-20,000
272,84;29,000
273,44;22,000
274,03;-39,000
274,62;-1,0000
275,22;-29,000
275,81;-37,000
276,41;131,00
277,00;1,0000
277,60;38,000
278,19;70,000
278,79;-62,000
279,38;18,000
279,98;3,0000
280,57;33,000
281,16;-54,000
281,76;12,000
282,35;5,0000
282,95;75,000
283,54;-38,000
284,14;-138,00
284,73;16,000
285,32;-80,000
285,92;-35,000
286,51;-27,000
287,11;38,000
287,70;-10,0000
288,29;-52,000
288,89;39,000
289,48;65,000
290,08;-15,000
290,67;-34,000
291,26;52,000
291,86;-12,000
292,45;58,000
293,04;-37,000
293,64;57,000
294,23;19,000
294,83;76,000
295,42;34,000
296,01;28,000
296,61;-80,000
297,20;-11,000
297,79;116,00
298,39;179,00
298,98;-51,000
299,57;6,0000
300,17;52,000
300,76;-59,000
301,35;-7,0000
301,95;77,000
302,54;7,0000
303,13;-64,000
303,73;-52,000
304,32;75,000
304,91;66,000
305,51;-34,000
306,10;-69,000
306,69;-15,000
307,28;78,000
307,88;-82,000
308,47;127,00
309,06;62,000
309,66;-65,000
310,25;80,000
310,84;95,000
311,43;63,000
312,03;167,00
312,62;99,000
313,21;172,00
313,81;189,00
314,40;321,00
314,99;352,00
315,58;454,00
316,18;454,00
316,77;390,00
317,36;280,00
317,95;341,00
318,54;340,00
319,14;189,00
319,73;172,00
320,32;56,000
320,91;62,000
321,51;97,000
322,10;85,000
322,69;73,000
323,28;155,00
323,87;157,00
324,47;97,000
325,06;83,000
325,65;90,000
326,24;93,000
326,83;200,00
327,43;227,00
328,02;167,00
328,61;340,00
329,20;295,00
329,79;222,00
330,39;263,00
330,98;286,00
331,57;267,00
332,16;320,00
332,75;322,00
333,34;393,00
333,93;248,00
334,53;526,00
335,12;740,00
335,71;1245,0
336,30;2181,0
336,89;2715,0
337,48;2740,0
338,07;2586,0
338,67;2555,0
339,26;2206,0
339,85;1863,0
340,44;1186,0
341,03;437,00
341,62;204,00
342,21;292,00
342,80;234,00
343,39;220,00
343,99;252,00
344,58;156,00
345,17;130,00
345,76;184,00
346,35;257,00
346,94;274,00
347,53;240,00
348,12;312,00
348,71;457,00
349,30;516,00
349,89;534,00
350,48;656,00
351,07;605,00
351,66;751,00
352,26;933,00
352,85;1401,0
353,44;1633,0
354,03;1721,0
354,62;1799,0
355,21;1912,0
355,80;2059,0
356,39;2750,0
356,98;3802,0
357,57;4044,0
358,16;3793,0
358,75;3854,0
359,34;3551,0
359,93;3172,0
360,52;2509,0
361,11;1434,0
361,70;581,00
362,29;438,00
362,88;311,00
363,47;468,00
364,06;390,00
364,65;511,00
365,24;509,00
365,83;600,00
366,42;555,00
367,01;641,00
367,60;657,00
368,19;603,00
368,78;742,00
369,37;814,00
369,95;969,00
370,54;1122,0
371,13;1121,0
371,72;1082,0
372,31;1083,0
372,90;1146,0
373,49;1225,0
374,08;1528,0
374,67;1834,0
375,26;2050,0
375,85;1960,0
376,44;2015,0
377,03;2006,0
377,61;2022,0
378,20;2037,0
378,79;1894,0
379,38;1850,0
379,97;2541,0
380,56;2709,0
381,15;2678,0
381,74;2594,0
382,33;2525,0
382,91;2402,0
383,50;2124,0
384,09;1580,0
384,68;1658,0
385,27;1669,0
385,86;1740,0
386,45;1863,0
387,03;1947,0
387,62;2034,0
388,21;2068,0
388,80;1830,0
389,39;1808,0
389,98;1605,0
390,57;1453,0
391,15;1294,0
391,74;1262,0
392,33;1085,0
392,92;1162,0
393,51;991,00
394,09;1155,0
394,68;1060,0
395,27;1096,0
395,86;1096,0
396,45;1079,0
397,03;1158,0
397,62;1074,0
398,21;1060,0
398,80;1366,0
399,39;1544,0
399,97;1649,0
400,56;1454,0
401,15;1546,0
401,74;1675,0
402,32;1438,0
402,91;1369,0
403,50;1086,0
404,09;1206,0
404,67;1399,0
405,26;1670,0
405,85;1751,0
406,44;1891,0
407,02;1884,0
407,61;1845,0
408,20;1771,0
408,78;1716,0
409,37;1412,0
409,96;1416,0
410,55;1472,0
411,13;1449,0
411,72;1392,0
412,31;1405,0
412,89;1484,0
413,48;1487,0
414,07;1498,0
414,65;1582,0
415,24;1651,0
415,83;1601,0
416,42;1556,0
417,00;1577,0
417,59;1687,0
418,18;1627,0
418,76;1672,0
419,35;1719,0
419,94;1821,0
420,52;1853,0
421,11;1688,0
421,69;1572,0
422,28;1577,0
422,87;1508,0
423,45;1661,0
424,04;1411,0
424,63;1558,0
425,21;1594,0
425,80;1696,0
426,38;1708,0
426,97;1818,0
427,56;1649,0
428,14;1563,0
428,73;1594,0
429,31;1471,0
429,90;1470,0
430,49;1246,0
431,07;1159,0
431,66;1258,0
432,24;1091,0
432,83;1250,0
433,42;1254,0
434,00;1543,0
434,59;1564,0
435,17;1679,0
435,76;1596,0
436,34;1550,0
436,93;1549,0
437,51;1335,0
438,10;1503,0
438,69;1116,0
439,27;1052,0
439,86;948,00
440,44;932,00
441,03;1001,0
441,61;911,00
442,20;1123,0
442,78;963,00
443,37;1033,0
443,95;1013,0
444,54;1109,0
445,12;960,00
445,71;945,00
446,29;1091,0
446,88;986,00
447,46;873,00
448,05;907,00
448,63;974,00
449,22;934,00
449,80;950,00
450,39;873,00
450,97;650,00
451,56;714,00
452,14;743,00
452,72;596,00
453,31;730,00
453,89;812,00
454,48;737,00
455,06;712,00
455,65;787,00
456,23;678,00
456,81;805,00
457,40;750,00
457,98;700,00
458,57;763,00
459,15;654,00
459,74;743,00
460,32;874,00
460,90;714,00
461,49;912,00
462,07;932,00
462,66;1192,0
463,24;1147,0
463,82;1195,0
464,41;1240,0
464,99;1115,0
465,57;1186,0
466,16;1218,0
466,74;1146,0
467,33;1041,0
467,91;964,00
468,49;909,00
469,08;846,00
469,66;775,00
470,24;848,00
470,83;788,00
471,41;708,00
471,99;795,00
472,58;615,00
473,16;741,00
473,74;741,00
474,33;842,00
474,91;582,00
475,49;671,00
476,08;660,00
476,66;746,00
477,24;778,00
477,82;645,00
478,41;757,00
478,99;793,00
479,57;937,00
480,16;785,00
480,74;1038,0
481,32;940,00
481,90;1074,0
482,49;1210,0
483,07;1293,0
483,65;1318,0
484,23;1382,0
484,82;1468,0
485,40;1577,0
485,98;1776,0
486,56;1771,0
487,15;1844,0
487,73;1882,0
488,31;1747,0
488,89;1567,0
489,47;1667,0
490,06;1532,0
490,64;1398,0
491,22;1333,0
491,80;1216,0
492,39;1027,0
492,97;990,00
493,55;986,00
494,13;924,00
494,71;903,00
495,29;745,00
495,88;792,00
496,46;731,00
497,04;728,00
497,62;591,00
498,20;670,00
498,78;703,00
499,37;724,00
499,95;1029,0
500,53;1179,0
501,11;1227,0
501,69;1138,0
502,27;1113,0
502,85;1177,0
503,44;1120,0
504,02;929,00
504,60;777,00
505,18;639,00
505,76;532,00
506,34;581,00
506,92;579,00
507,50;534,00
508,08;498,00
508,67;481,00
509,25;556,00
509,83;443,00
510,41;420,00
510,99;424,00
511,57;306,00
512,15;361,00
512,73;393,00
513,31;495,00
513,89;335,00
514,47;440,00
515,05;398,00
515,63;451,00
516,21;621,00
516,79;495,00
517,38;453,00
517,96;444,00
518,54;531,00
519,12;499,00
519,70;499,00
520,28;423,00
520,86;468,00
521,44;386,00
522,02;488,00
522,60;530,00
523,18;405,00
523,76;522,00
524,34;322,00
524,92;585,00
525,50;418,00
526,08;390,00
526,66;435,00
527,24;345,00
527,82;388,00
528,39;359,00
528,97;423,00
529,55;459,00
530,13;472,00
530,71;434,00
531,29;473,00
531,87;516,00
532,45;488,00
533,03;495,00
533,61;428,00
534,19;520,00
534,77;483,00
535,35;527,00
535,93;518,00
536,51;375,00
537,08;568,00
537,66;453,00
538,24;520,00
538,82;444,00
539,40;472,00
539,98;424,00
540,56;362,00
541,14;432,00
541,72;375,00
542,29;455,00
542,87;320,00
543,45;463,00
544,03;355,00
544,61;434,00
545,19;402,00
545,77;444,00
546,34;516,00
546,92;528,00
547,50;421,00
548,08;512,00
548,66;471,00
549,23;477,00
549,81;528,00
550,39;344,00
550,97;440,00
551,55;417,00
552,13;476,00
552,70;375,00
553,28;471,00
553,86;418,00
554,44;428,00
555,01;538,00
555,59;475,00
556,17;426,00
556,75;521,00
557,33;531,00
557,90;482,00
558,48;468,00
559,06;441,00
559,64;501,00
560,21;532,00
560,79;446,00
561,37;530,00
561,95;394,00
562,52;370,00
563,10;408,00
563,68;335,00
564,25;498,00
564,83;425,00
565,41;426,00
565,99;508,00
566,56;601,00
567,14;581,00
567,72;775,00
568,29;683,00
568,87;689,00
569,45;875,00
570,02;739,00
570,60;648,00
571,18;656,00
571,75;511,00
572,33;442,00
572,91;436,00
573,48;454,00
574,06;489,00
574,64;363,00
575,21;529,00
575,79;359,00
576,37;476,00
576,94;370,00
577,52;501,00
578,09;524,00
578,67;440,00
579,25;416,00
579,82;424,00
580,40;379,00
580,97;432,00
581,55;340,00
582,13;441,00
582,70;366,00
583,28;436,00
583,85;429,00
584,43;362,00
585,01;420,00
585,58;463,00
586,16;426,00
586,73;401,00
587,31;352,00
587,88;428,00
588,46;341,00
589,03;397,00
589,61;466,00
590,18;482,00
590,76;382,00
591,34;483,00
591,91;466,00
592,49;595,00
593,06;459,00
593,64;415,00
594,21;480,00
594,79;488,00
595,36;510,00
595,94;395,00
596,51;430,00
597,09;337,00
597,66;438,00
598,24;379,00
598,81;285,00
599,38;360,00
599,96;372,00
600,53;358,00
601,11;323,00
601,68;399,00
602,26;464,00
602,83;334,00
603,41;362,00
603,98;406,00
604,56;226,00
605,13;325,00
605,70;275,00
606,28;423,00
606,85;378,00
607,43;283,00
608,00;334,00
608,57;364,00
609,15;279,00
609,72;411,00
610,30;421,00
610,87;294,00
611,44;301,00
612,02;448,00
612,59;278,00
613,16;452,00
613,74;378,00
614,31;334,00
614,89;380,00
615,46;260,00
616,03;390,00
616,61;529,00
617,18;382,00
617,75;360,00
618,33;348,00
618,90;491,00
619,47;428,00
620,05;403,00
620,62;372,00
621,19;340,00
621,77;363,00
622,34;343,00
622,91;407,00
623,48;321,00
624,06;361,00
624,63;310,00
625,20;236,00
625,78;295,00
626,35;341,00
626,92;347,00
627,49;271,00
628,07;322,00
628,64;295,00
629,21;315,00
629,78;288,00
630,36;300,00
630,93;347,00
631,50;291,00
632,07;354,00
632,65;286,00
633,22;305,00
633,79;304,00
634,36;315,00
634,93;230,00
635,51;350,00
636,08;329,00
636,65;122,00
637,22;209,00
637,79;298,00
638,37;365,00
638,94;239,00
639,51;254,00
640,08;250,00
640,65;295,00
641,22;351,00
641,80;421,00
642,37;297,00
642,94;375,00
643,51;420,00
644,08;327,00
644,65;310,00
645,22;257,00
645,80;427,00
646,37;378,00
646,94;520,00
647,51;336,00
648,08;628,00
648,65;553,00
649,22;459,00
649,79;690,00
650,36;689,00
650,93;553,00
651,51;287,00
652,08;646,00
652,65;763,00
653,22;744,00
653,79;783,00
654,36;1217,0
654,93;1246,0
655,50;1753,0
656,07;2534,0
656,64;3076,0
657,21;3119,0
657,78;3080,0
658,35;3243,0
658,92;3029,0
659,49;2872,0
660,06;2381,0
660,63;1892,0
661,20;1808,0
661,77;1671,0
662,34;1602,0
662,91;1486,0
663,48;1241,0
664,05;1028,0
664,62;864,00
665,19;690,00
665,76;728,00
666,33;569,00
666,90;508,00
667,47;497,00
668,04;446,00
668,61;440,00
669,18;453,00
669,75;560,00
670,32;377,00
670,89;389,00
671,46;413,00
672,03;423,00
672,60;374,00
673,17;263,00
673,74;325,00
674,30;227,00
674,87;501,00
675,44;281,00
676,01;339,00
676,58;271,00
677,15;228,00
677,72;306,00
678,29;245,00
678,86;257,00
679,42;281,00
679,99;203,00
680,56;181,00
681,13;229,00
681,70;309,00
682,27;139,00
682,84;145,00
683,40;292,00
683,97;225,00
684,54;208,00
685,11;215,00
685,68;227,00
686,25;196,00
686,81;260,00
687,38;198,00
687,95;154,00
688,52;210,00
689,09;157,00
689,65;262,00
690,22;306,00
690,79;272,00
691,36;149,00
691,92;308,00
692,49;258,00
693,06;210,00
693,63;168,00
694,20;238,00
694,76;165,00
695,33;297,00
695,90;140,00
696,47;239,00
697,03;143,00
697,60;227,00
698,17;226,00
698,73;187,00
699,30;196,00
699,87;175,00
700,44;248,00
701,00;186,00
701,57;172,00
702,14;250,00
702,70;225,00
703,27;234,00
703,84;171,00
704,40;267,00
704,97;162,00
705,54;178,00
706,10;169,00
706,67;156,00
707,24;205,00
707,80;147,00
708,37;234,00
708,94;172,00
709,50;175,00
710,07;206,00
710,64;221,00
711,20;154,00
711,77;114,00
712,33;202,00
712,90;153,00
713,47;212,00
714,03;212,00
714,60;172,00
715,16;220,00
715,73;184,00
716,30;283,00
716,86;284,00
717,43;306,00
717,99;208,00
718,56;305,00
719,12;158,00
719,69;182,00
720,26;300,00
720,82;215,00
721,39;111,00
721,95;66,000
722,52;279,00
723,08;167,00
723,65;140,00
724,21;168,00
724,78;197,00
725,34;178,00
725,91;163,00
726,47;378,00
727,04;174,00
727,60;122,00
728,17;106,00
728,73;235,00
729,30;163,00
729,86;191,00
730,43;63,000
730,99;165,00
731,56;141,00
732,12;149,00
732,68;163,00
733,25;64,000
733,81;136,00
734,38;162,00
734,94;168,00
735,51;183,00
736,07;168,00
736,63;126,00
737,20;115,00
737,76;155,00
738,33;52,000
738,89;226,00
739,46;113,00
740,02;139,00
740,58;207,00
741,15;57,000
741,71;174,00
742,27;160,00
742,84;406,00
743,40;370,00
743,97;504,00
744,53;514,00
745,09;522,00
745,66;430,00
746,22;676,00
746,78;650,00
747,35;731,00
747,91;675,00
748,47;629,00
749,04;548,00
749,60;525,00
750,16;356,00
750,72;300,00
751,29;165,00
751,85;132,00
752,41;165,00
752,98;101,00
753,54;206,00
754,10;108,00
754,66;73,000
755,23;106,00
755,79;101,00
756,35;201,00
756,91;69,000
757,48;100,000
758,04;51,000
758,60;59,000
759,16;209,00
759,73;115,00
760,29;65,000
760,85;98,000
761,41;89,000
761,98;90,000
762,54;62,000
763,10;79,000
763,66;66,000
764,22;140,00
764,79;135,00
765,35;-7,0000
765,91;72,000
766,47;112,00
767,03;37,000
767,59;51,000
768,16;36,000
768,72;51,000
769,28;129,00
769,84;201,00
770,40;-39,000
770,96;112,00
771,52;122,00
772,09;109,00
772,65;41,000
773,21;116,00
773,77;37,000
774,33;49,000
774,89;62,000
775,45;134,00
776,01;173,00
776,57;260,00
777,13;877,00
777,70;996,00
778,26;865,00
778,82;893,00
779,38;951,00
779,94;1016,0
780,50;916,00
781,06;425,00
781,62;263,00
782,18;199,00
782,74;246,00
783,30;40,000
783,86;107,00
784,42;10,0000
784,98;10,0000
785,54;144,00
786,10;-11,000
786,66;30,000
787,22;14,000
787,78;18,000
788,34;116,00
788,90;114,00
789,46;126,00
790,02;205,00
790,58;40,000
791,14;26,000
791,70;116,00
792,26;115,00
792,82;40,000
793,38;59,000
793,94;118,00
794,50;185,00
795,06;200,00
795,62;118,00
796,17;74,000
796,73;120,00
797,29;113,00
797,85;235,00
798,41;105,00
798,97;44,000
799,53;51,000
800,09;114,00
800,65;168,00
801,21;263,00
801,76;6,0000
802,32;104,00
802,88;90,000
803,44;48,000
804,00;-31,000
804,56;-61,000
805,12;54,000
805,67;47,000
806,23;21,000
806,79;45,000
807,35;-10,0000
807,91;67,000
808,46;-25,000
809,02;35,000
809,58;151,00
810,14;-31,000
810,70;93,000
811,26;21,000
811,81;-7,0000
812,37;49,000
812,93;87,000
813,49;-18,000
814,04;5,0000
814,60;150,00
815,16;149,00
815,72;147,00
816,27;40,000
816,83;-3,0000
817,39;44,000
817,95;77,000
818,50;273,00
819,06;224,00
819,62;214,00
820,18;317,00
820,73;249,00
821,29;524,00
821,85;505,00
822,40;469,00
822,96;437,00
823,52;487,00
824,07;402,00
824,63;434,00
825,19;371,00
825,74;281,00
826,30;220,00
826,86;108,00
827,41;89,000
827,97;157,00
828,53;72,000
829,08;87,000
829,64;47,000
830,20;124,00
830,75;20,000
831,31;54,000
831,86;64,000
832,42;78,000
832,98;109,00
833,53;25,000
834,09;41,000
834,64;103,00
835,20;20,000
835,76;65,000
836,31;47,000
836,87;108,00
837,42;60,000
837,98;106,00
838,53;144,00
839,09;7,0000
839,64;69,000
840,20;137,00
840,75;39,000
841,31;85,000
841,87;-45,000
842,42;-151,00
842,98;68,000
843,53;32,000
844,09;121,00
844,64;175,00
845,20;251,00
845,75;321,00
846,31;200,00
846,86;214,00
847,41;320,00
847,97;153,00
848,52;21,000
849,08;58,000
849,63;109,00
850,19;146,00
850,74;10,0000
851,30;-3,0000
851,85;10,0000
852,41;70,000
852,96;77,000
853,51;25,000
854,07;9,0000
854,62;87,000
855,18;36,000
855,73;45,000
856,28;-56,000
856,84;62,000
857,39;80,000
857,95;100,000
858,50;124,00
859,05;-28,000
859,61;188,00
860,16;-14,000
860,71;-37,000
861,27;26,000
861,82;106,00
862,37;89,000
862,93;148,00
863,48;173,00
864,03;169,00
864,59;145,00
865,14;121,00
865,69;277,00
866,25;156,00
866,80;770,00
867,35;209,00
867,90;267,00
868,46;184,00
869,01;323,00
869,56;466,00
870,12;352,00
870,67;376,00
871,22;349,00
871,77;343,00
872,33;314,00
872,88;135,00
873,43;246,00
873,98;164,00
874,54;191,00
875,09;74,000
875,64;49,000
876,19;30,000
876,74;42,000
877,30;-49,000
877,85;-14,000
878,40;31,000
878,95;-1,0000
879,50;36,000
880,06;58,000
880,61;20,000
881,16;25,000
881,71;-36,000
882,26;-62,000
882,81;2,0000
883,37;71,000
883,92;45,000
884,47;28,000
885,02;79,000
885,57;97,000
886,12;-51,000
886,67;30,000
887,22;26,000
887,78;-66,000
888,33;64,000
888,88;210,00
889,43;14,000
889,98;143,00
890,53;-34,000
891,08;55,000
891,63;56,000
892,18;218,00
892,73;145,00
893,28;-72,000
893,83;-7,0000
894,38;72,000
894,93;-19,000
895,48;115,00
896,03;18,000
896,59;-42,000
897,14;138,00
897,69;-23,000
898,24;44,000
898,79;41,000
899,34;54,000
899,89;89,000
900,44;74,000
900,99;139,00
901,53;120,00
902,08;-26,000
902,63;-16,000
903,18;36,000
903,73;41,000
904,28;-16,000
904,83;101,00
905,38;131,00
905,93;100,000
906,48;227,00
907,03;39,000
907,58;142,00
908,13;60,000
908,68;59,000
909,23;196,00
909,78;107,00
910,32;8,0000
910,87;-20,000
911,42;68,000
911,97;55,000
912,52;39,000
913,07;46,000
913,62;24,000
914,17;-49,000
914,71;90,000
915,26;110,00
915,81;-26,000
916,36;-63,000
916,91;1,0000
917,46;29,000
918,00;53,000
918,55;62,000
919,10;112,00
919,65;35,000
920,20;116,00
920,74;22,000
921,29;52,000
921,84;110,00
922,39;96,000
922,94;-45,000
923,48;-1,0000
924,03;1,0000
924,58;32,000
925,13;23,000
925,67;80,000
926,22;104,00
926,77;184,00
927,32;141,00
927,86;90,000
928,41;206,00
928,96;180,00
929,50;149,00
930,05;115,00
930,60;102,00
931,15;59,000
931,69;39,000
932,24;50,000
932,79;58,000
933,33;-39,000
933,88;42,000
934,43;-48,000
934,97;-25,000
935,52;117,00
936,07;18,000
936,61;11,000
937,16;34,000
937,71;-33,000
938,25;-65,000
938,80;49,000
939,34;158,00
939,89;106,00
940,44;174,00
940,98;62,000
941,53;231,00
942,07;60,000
942,62;60,000
943,17;41,000
943,71;15,000
944,26;-70,000
944,80;99,000
945,35;5,0000
945,89;-136,00
946,44;-39,000
946,99;-33,000
947,53;86,000
948,08;-31,000
948,62;77,000
949,17;-394,00
949,71;-9,0000
950,26;49,000
950,80;27,000
951,35;33,000
951,89;41,000
952,44;40,000
952,98;-48,000
953,53;92,000
954,07;76,000
954,62;110,00
955,16;-36,000
955,71;9,0000
956,25;83,000
956,79;16,000
957,34;-11,000
957,88;157,00
958,43;47,000
958,97;126,00
959,52;45,000
960,06;41,000
960,60;50,000
961,15;-20,000
961,69;-22,000
962,24;152,00
962,78;36,000
963,32;13,000
963,87;89,000
964,41;107,00
964,96;-3,0000
965,50;-49,000
966,04;54,000
966,59;-1,0000
967,13;50,000
967,67;-57,000
968,22;-79,000
968,76;-18,000
969,30;114,00
969,85;-13,000
970,39;-42,000
970,93;34,000
971,47;-25,000
972,02;48,000
972,56;38,000
973,10;-76,000
973,65;4,0000
974,19;12,000
974,73;61,000
975,27;49,000
975,82;29,000
976,36;179,00
976,90;97,000
977,44;-53,000
977,99;-19,000
978,53;-20,000
979,07;99,000
979,61;9,0000
980,16;65,000
980,70;136,00
981,24;11,000
981,78;-132,00
982,32;8,0000
982,87;49,000
983,41;33,000
983,95;41,000
984,49;-53,000
985,03;-57,000
985,57;26,000
986,12;105,00
986,66;39,000
987,20;-41,000
987,74;23,000
988,28;40,000
988,82;-35,000
989,36;71,000
989,91;-115,00
990,45;-107,00
990,99;-5,0000
991,53;6,0000
992,07;45,000
992,61;53,000
993,15;-62,000
993,69;55,000
994,23;-123,00
994,77;-76,000
995,31;-28,000
995,86;-43,000
996,40;36,000
996,94;51,000
997,48;-2,0000
998,02;35,000
998,56;10,0000
999,10;27,000
999,64;57,000
1000,18;-6,0000
1000,72;-17,000
1001,26;55,000
1001,80;18,000
1002,34;-27,000
1002,88;-11,000
1003,42;-13,000
1003,96;35,000
1004,50;-5,0000
1005,04;-9,0000
1005,58;77,000
1006,12;13,000
1006,66;125,00
1007,20;5,0000
1007,73;20,000
1008,27;45,000
1008,81;-129,00
1009,35;75,000
1009,89;41,000
1010,43;-31,000
1010,97;88,000
1011,51;53,000
1012,05;28,000
1012,59;102,00
1013,13;20,000
1013,66;89,000
1014,20;134,00
1014,74;122,00
1015,28;38,000
1015,82;2,0000
1016,36;38,000
1016,90;7,0000
1017,43;2,0000
1017,97;106,00
1018,51;69,000
1019,05;25,000
1019,59;-77,000
1020,13;-33,000
1020,66;91,000
1021,20;81,000
1021,74;-38,000
1022,28;-85,000
1022,81;-7,0000
1023,35;39,000
1023,89;-48,000
1024,43;13,000
1024,97;-4,0000
1025,50;-2,0000
1026,04;-27,000
1026,58;27,000
1027,12;98,000
1027,65;-28,000
1028,19;-79,000
1028,73;3,0000
1029,26;46,000
1029,80;-26,000
1030,34;8,0000
1030,88;108,00
1031,41;98,000
1031,95;11,000
1032,49;81,000
1033,02;44,000
1033,56;21,000
1034,10;5,0000
1034,63;-3,0000
1035,17;-3,0000
1035,71;-59,000
1036,24;-37,000
1036,78;21,000
1037,32;-31,000
1037,85;179,00
1038,39;97,000
1038,92;47,000
1039,46;-35,000
1040,00;-46,000
1040,53;36,000
1041,07;118,00
1041,60;-5,0000
1042,14;85,000
1042,68;-14,000
1043,21;-37,000
1043,75;34,000
1044,28;87,000
1044,82;8,0000
1045,35;80,000
1045,89;-61,000
1046,42;-1,0000
1046,96;19,000
1047,49;-23,000
1048,03;-2,0000
1048,57;-61,000
1049,10;97,000
1049,64;-6,0000
1050,17;111,00
1050,70;72,000
1051,24;151,00
1051,77;108,00
1052,31;-9,0000
1052,84;0
1053,38;10,0000
1053,91;10,0000
1054,45;25,000
1054,98;136,00
1055,52;64,000
1056,05;55,000
1056,59;21,000
1057,12;-211,00
1057,65;17,000
1058,19;26,000
1058,72;6,0000
1059,26;-63,000
1059,79;-6,0000
1060,32;54,000
1060,86;15,000
1061,39;67,000
1061,93;12,000
1062,46;57,000
1062,99;-61,000
1063,53;-50,000
1064,06;28,000
1064,59;-40,000
1065,13;21,000
1065,66;42,000
1066,19;64,000
1066,73;-65,000
1067,26;43,000
1067,79;119,00
1068,33;-31,000
1068,86;184,00
1069,39;52,000
1069,92;2,0000
1070,46;90,000
1070,99;-5,0000
1071,52;-41,000
1072,05;-26,000
1072,59;-39,000
1073,12;112,00
1073,65;-54,000
1074,18;4,0000
1074,72;-35,000
1075,25;11,000
1075,78;-3,0000
1076,31;39,000
1076,85;64,000
1077,38;-12,000
1077,91;0
1078,44;-8,0000
1078,97;38,000
1079,51;-32,000
1080,04;-30,000
1080,57;-67,000
1081,10;66,000
1081,63;-122,00
1082,16;-73,000
1082,70;2,0000
1083,23;72,000
1083,76;11,000
1084,29;-41,000
1084,82;-22,000
1085,35;43,000
1085,88;-35,000
1086,41;-22,000
1086,94;18,000
1087,48;-108,00
1088,01;32,000
1088,54;-29,000
1089,07;20,000
1089,60;-26,000
1090,13;-42,000
1090,66;-44,000
1091,19;31,000
1091,72;27,000
1092,25;83,000
1092,78;-34,000
1093,31;-4,0000
1093,84;-3,0000
1094,37;13,000
1094,90;98,000
1095,43;-22,000
1095,96;-37,000
1096,49;49,000
1097,02;49,000
1097,55;-5,0000
1098,08;55,000
1098,61;32,000
1099,14;-23,000
1099,67;86,000
1100,20;82,000
