M- 31 del, 2
Integration time: 5000 ms
Average: 1 scans
Nr of pixels used for smoothing: 0
Data measured with spectrometer serial number: 0604021S1
Wave   ;Sample
[nm]   ;[counts]
173,70;-33,000
174,30;45,000
174,90;-22,000
175,50;-31,000
176,10;-17,000
176,70;46,000
177,30;14,000
177,90;27,000
178,50;-111,00
179,10;-21,000
179,70;-46,000
180,30;70,000
180,89;0
181,49;29,000
182,09;-45,000
182,69;-4,0000
183,29;72,000
183,89;107,00
184,49;12,000
185,09;7,0000
185,69;83,000
186,29;46,000
186,89;-16,000
187,48;-42,000
188,08;15,000
188,68;89,000
189,28;36,000
189,88;16,000
190,48;26,000
191,08;113,00
191,68;45,000
192,28;37,000
192,87;-1,0000
193,47;-13,000
194,07;47,000
194,67;-41,000
195,27;47,000
195,87;-108,00
196,47;-22,000
197,06;4,0000
197,66;-80,000
198,26;83,000
198,86;-26,000
199,46;-73,000
200,06;115,00
200,66;-48,000
201,25;120,00
201,85;4,0000
202,45;6,0000
203,05;9,0000
203,65;111,00
204,24;-66,000
204,84;52,000
205,44;-25,000
206,04;23,000
206,64;34,000
207,24;60,000
207,83;-58,000
208,43;-35,000
209,03;-53,000
209,63;74,000
210,22;63,000
210,82;60,000
211,42;65,000
212,02;55,000
212,62;24,000
213,21;-17,000
213,81;-42,000
214,41;-12,000
215,01;-19,000
215,60;-40,000
216,20;-66,000
216,80;20,000
217,40;18,000
218,00;63,000
218,59;131,00
219,19;18,000
219,79;-44,000
220,38;-48,000
220,98;48,000
221,58;47,000
222,18;22,000
222,77;11,000
223,37;35,000
223,97;-22,000
224,57;47,000
225,16;48,000
225,76;13,000
226,36;-1,0000
226,95;-47,000
227,55;36,000
228,15;57,000
228,75;-80,000
229,34;-21,000
229,94;7,0000
230,54;-5,0000
231,13;60,000
231,73;68,000
232,33;53,000
232,92;187,00
233,52;-5,0000
234,12;-18,000
234,71;144,00
235,31;-40,000
235,91;-11,000
236,50;-17,000
237,10;-20,000
237,70;62,000
238,29;69,000
238,89;51,000
239,49;-5,0000
240,08;23,000
240,68;43,000
241,28;55,000
241,87;59,000
242,47;85,000
243,06;59,000
243,66;-9,0000
244,26;29,000
244,85;69,000
245,45;-2,0000
246,05;-1,0000
246,64;-21,000
247,24;-43,000
247,83;48,000
248,43;-12,000
249,03;4,0000
249,62;-15,000
250,22;37,000
250,81;2,0000
251,41;-7,0000
252,01;55,000
252,60;31,000
253,20;120,00
253,79;-19,000
254,39;35,000
254,98;30,000
255,58;-6,0000
256,18;27,000
256,77;126,00
257,37;-39,000
257,96;27,000
258,56;60,000
259,15;114,00
259,75;-66,000
260,34;27,000
260,94;50,000
261,53;-47,000
262,13;76,000
262,73;-84,000
263,32;20,000
263,92;66,000
264,51;176,00
265,11;-10,0000
265,70;7,0000
266,30;63,000
266,89;10,0000
267,49;-84,000
268,08;-62,000
268,68;13,000
269,27;6,0000
269,87;60,000
270,46;36,000
271,06;-3,0000
271,65;-15,000
272,25;-15,000
272,84;75,000
273,44;-13,000
274,03;150,00
274,62;3,0000
275,22;-39,000
275,81;67,000
276,41;-37,000
277,00;65,000
277,60;38,000
278,19;28,000
278,79;17,000
279,38;-7,0000
279,98;41,000
280,57;83,000
281,16;53,000
281,76;-38,000
282,35;-28,000
282,95;35,000
283,54;-55,000
284,14;-57,000
284,73;10,0000
285,32;-23,000
285,92;-57,000
286,51;59,000
287,11;-19,000
287,70;53,000
288,29;27,000
288,89;34,000
289,48;-35,000
290,08;50,000
290,67;-79,000
291,26;4,0000
291,86;56,000
292,45;-13,000
293,04;43,000
293,64;12,000
294,23;-55,000
294,83;-16,000
295,42;60,000
296,01;3,0000
296,61;10,0000
297,20;4,0000
297,79;34,000
298,39;56,000
298,98;-50,000
299,57;49,000
300,17;0
300,76;20,000
301,35;123,00
301,95;59,000
302,54;51,000
303,13;1,0000
303,73;13,000
304,32;3,0000
304,91;71,000
305,51;100,000
306,10;8,0000
306,69;93,000
307,28;46,000
307,88;-5,0000
308,47;2,0000
309,06;24,000
309,66;24,000
310,25;-45,000
310,84;17,000
311,43;62,000
312,03;-8,0000
312,62;57,000
313,21;93,000
313,81;132,00
314,40;193,00
314,99;264,00
315,58;366,00
316,18;404,00
316,77;375,00
317,36;392,00
317,95;276,00
318,54;383,00
319,14;276,00
319,73;-71,000
320,32;41,000
320,91;82,000
321,51;39,000
322,10;34,000
322,69;48,000
323,28;-58,000
323,87;-42,000
324,47;11,000
325,06;-17,000
325,65;3,0000
326,24;-35,000
326,83;42,000
327,43;32,000
328,02;45,000
328,61;47,000
329,20;74,000
329,79;46,000
330,39;81,000
330,98;177,00
331,57;77,000
332,16;44,000
332,75;108,00
333,34;147,00
333,93;86,000
334,53;159,00
335,12;341,00
335,71;1017,0
336,30;1967,0
336,89;3113,0
337,48;3118,0
338,07;3045,0
338,67;2890,0
339,26;2898,0
339,85;2314,0
340,44;1397,0
341,03;299,00
341,62;26,000
342,21;238,00
342,80;46,000
343,39;38,000
343,99;55,000
344,58;41,000
345,17;18,000
345,76;154,00
346,35;22,000
346,94;-40,000
347,53;159,00
348,12;-37,000
348,71;43,000
349,30;66,000
349,89;161,00
350,48;103,00
351,07;67,000
351,66;247,00
352,26;794,00
352,85;782,00
353,44;1068,0
354,03;1201,0
354,62;1232,0
355,21;1298,0
355,80;1588,0
356,39;2340,0
356,98;3791,0
357,57;4339,0
358,16;4454,0
358,75;4202,0
359,34;4064,0
359,93;3596,0
360,52;2908,0
361,11;1490,0
361,70;314,00
362,29;-10,0000
362,88;43,000
363,47;106,00
364,06;75,000
364,65;153,00
365,24;-8,0000
365,83;95,000
366,42;105,00
367,01;-18,000
367,60;190,00
368,19;109,00
368,78;28,000
369,37;207,00
369,95;119,00
370,54;435,00
371,13;393,00
371,72;322,00
372,31;418,00
372,90;401,00
373,49;609,00
374,08;700,00
374,67;1127,0
375,26;1547,0
375,85;1517,0
376,44;1525,0
377,03;1374,0
377,61;1300,0
378,20;1217,0
378,79;1132,0
379,38;1385,0
379,97;2138,0
380,56;2425,0
381,15;2421,0
381,74;2316,0
382,33;2132,0
382,91;1764,0
383,50;1265,0
384,09;505,00
384,68;210,00
385,27;55,000
385,86;119,00
386,45;102,00
387,03;83,000
387,62;112,00
388,21;47,000
388,80;110,00
389,39;148,00
389,98;134,00
390,57;100,000
391,15;85,000
391,74;143,00
392,33;185,00
392,92;109,00
393,51;369,00
394,09;222,00
394,68;386,00
395,27;209,00
395,86;272,00
396,45;269,00
397,03;427,00
397,62;338,00
398,21;407,00
398,80;545,00
399,39;896,00
399,97;834,00
400,56;935,00
401,15;856,00
401,74;848,00
402,32;740,00
402,91;503,00
403,50;356,00
404,09;359,00
404,67;539,00
405,26;936,00
405,85;967,00
406,44;1099,0
407,02;1074,0
407,61;996,00
408,20;941,00
408,78;825,00
409,37;312,00
409,96;129,00
410,55;121,00
411,13;223,00
411,72;145,00
412,31;79,000
412,89;63,000
413,48;95,000
414,07;114,00
414,65;168,00
415,24;162,00
415,83;158,00
416,42;-6,0000
417,00;58,000
417,59;116,00
418,18;165,00
418,76;129,00
419,35;194,00
419,94;329,00
420,52;141,00
421,11;237,00
421,69;202,00
422,28;264,00
422,87;185,00
423,45;229,00
424,04;137,00
424,63;246,00
425,21;152,00
425,80;216,00
426,38;492,00
426,97;546,00
427,56;459,00
428,14;428,00
428,73;522,00
429,31;487,00
429,90;377,00
430,49;305,00
431,07;105,00
431,66;206,00
432,24;164,00
432,83;150,00
433,42;218,00
434,00;449,00
434,59;408,00
435,17;384,00
435,76;267,00
436,34;351,00
436,93;426,00
437,51;213,00
438,10;233,00
438,69;37,000
439,27;92,000
439,86;97,000
440,44;25,000
441,03;-44,000
441,61;90,000
442,20;112,00
442,78;55,000
443,37;-59,000
443,95;90,000
444,54;122,00
445,12;47,000
445,71;139,00
446,29;34,000
446,88;42,000
447,46;-19,000
448,05;107,00
448,63;172,00
449,22;125,00
449,80;63,000
450,39;116,00
450,97;125,00
451,56;116,00
452,14;153,00
452,72;135,00
453,31;88,000
453,89;72,000
454,48;13,000
455,06;1,0000
455,65;100,000
456,23;96,000
456,81;144,00
457,40;170,00
457,98;86,000
458,57;168,00
459,15;101,00
459,74;120,00
460,32;92,000
460,90;147,00
461,49;32,000
462,07;-3,0000
462,66;24,000
463,24;-39,000
463,82;4,0000
464,41;97,000
464,99;-19,000
465,57;7,0000
466,16;179,00
466,74;118,00
467,33;106,00
467,91;118,00
468,49;85,000
469,08;36,000
469,66;-11,000
470,24;-71,000
470,83;95,000
471,41;58,000
471,99;-7,0000
472,58;31,000
473,16;25,000
473,74;25,000
474,33;-2,0000
474,91;-7,0000
475,49;-5,0000
476,08;80,000
476,66;-19,000
477,24;13,000
477,82;-28,000
478,41;-13,000
478,99;8,0000
479,57;12,000
480,16;64,000
480,74;70,000
481,32;57,000
481,90;36,000
482,49;34,000
483,07;106,00
483,65;60,000
484,23;-93,000
484,82;-22,000
485,40;79,000
485,98;60,000
486,56;71,000
487,15;9,0000
487,73;92,000
488,31;85,000
488,89;-3,0000
489,47;-67,000
490,06;47,000
490,64;13,000
491,22;80,000
491,80;46,000
492,39;57,000
492,97;-6,0000
493,55;45,000
494,13;76,000
494,71;89,000
495,29;7,0000
495,88;-68,000
496,46;-24,000
497,04;-29,000
497,62;53,000
498,20;-40,000
498,78;58,000
499,37;14,000
499,95;44,000
500,53;-23,000
501,11;-5,0000
501,69;72,000
502,27;38,000
502,85;-13,000
503,44;41,000
504,02;133,00
504,60;77,000
505,18;74,000
505,76;-42,000
506,34;50,000
506,92;-66,000
507,50;-78,000
508,08;-44,000
508,67;32,000
509,25;77,000
509,83;36,000
510,41;-27,000
510,99;24,000
511,57;-23,000
512,15;-43,000
512,73;96,000
513,31;87,000
513,89;77,000
514,47;35,000
515,05;8,0000
515,63;-52,000
516,21;-53,000
516,79;8,0000
517,38;75,000
517,96;-22,000
518,54;43,000
519,12;109,00
519,70;44,000
520,28;45,000
520,86;50,000
521,44;38,000
522,02;-28,000
522,60;28,000
523,18;23,000
523,76;-13,000
524,34;-93,000
524,92;-29,000
525,50;58,000
526,08;-108,00
526,66;69,000
527,24;-23,000
527,82;-31,000
528,39;33,000
528,97;65,000
529,55;22,000
530,13;65,000
530,71;17,000
531,29;58,000
531,87;168,00
532,45;36,000
533,03;-51,000
533,61;-4,0000
534,19;-85,000
534,77;21,000
535,35;-2,0000
535,93;-2,0000
536,51;21,000
537,08;-6,0000
537,66;-18,000
538,24;-26,000
538,82;54,000
539,40;47,000
539,98;-28,000
540,56;36,000
541,14;60,000
541,72;121,00
542,29;-15,000
542,87;-26,000
543,45;-72,000
544,03;-63,000
544,61;-42,000
545,19;-41,000
545,77;-49,000
546,34;8,0000
546,92;66,000
547,50;107,00
548,08;34,000
548,66;186,00
549,23;18,000
549,81;73,000
550,39;-39,000
550,97;50,000
551,55;-10,0000
552,13;45,000
552,70;63,000
553,28;41,000
553,86;14,000
554,44;-51,000
555,01;35,000
555,59;100,000
556,17;78,000
556,75;-12,000
557,33;-2,0000
557,90;90,000
558,48;66,000
559,06;-51,000
559,64;-6,0000
560,21;101,00
560,79;-23,000
561,37;44,000
561,95;191,00
562,52;40,000
563,10;80,000
563,68;57,000
564,25;52,000
564,83;44,000
565,41;-68,000
565,99;-52,000
566,56;47,000
567,14;67,000
567,72;49,000
568,29;-62,000
568,87;-4,0000
569,45;-30,000
570,02;-2,0000
570,60;130,00
571,18;109,00
571,75;9,0000
572,33;-92,000
572,91;-85,000
573,48;-92,000
574,06;-14,000
574,64;139,00
575,21;51,000
575,79;-37,000
576,37;72,000
576,94;127,00
577,52;38,000
578,09;157,00
578,67;20,000
579,25;20,000
579,82;-19,000
580,40;-5,0000
580,97;158,00
581,55;75,000
582,13;-18,000
582,70;-103,00
583,28;91,000
583,85;40,000
584,43;54,000
585,01;-55,000
585,58;72,000
586,16;55,000
586,73;-117,00
587,31;-7,0000
587,88;-3,0000
588,46;69,000
589,03;55,000
589,61;101,00
590,18;23,000
590,76;-13,000
591,34;30,000
591,91;69,000
592,49;89,000
593,06;64,000
593,64;163,00
594,21;2,0000
594,79;18,000
595,36;76,000
595,94;-90,000
596,51;60,000
597,09;-3,0000
597,66;50,000
598,24;-33,000
598,81;-96,000
599,38;83,000
599,96;80,000
600,53;34,000
601,11;80,000
601,68;4,0000
602,26;26,000
602,83;-20,000
603,41;-65,000
603,98;-16,000
604,56;56,000
605,13;-15,000
605,70;27,000
606,28;106,00
606,85;88,000
607,43;65,000
608,00;40,000
608,57;89,000
609,15;20,000
609,72;43,000
610,30;69,000
610,87;88,000
611,44;20,000
612,02;16,000
612,59;1,0000
613,16;107,00
613,74;-28,000
614,31;56,000
614,89;214,00
615,46;-35,000
616,03;13,000
616,61;53,000
617,18;23,000
617,75;32,000
618,33;134,00
618,90;9,0000
619,47;41,000
620,05;-7,0000
620,62;104,00
621,19;-59,000
621,77;36,000
622,34;57,000
622,91;57,000
623,48;-32,000
624,06;1,0000
624,63;18,000
625,20;16,000
625,78;35,000
626,35;-29,000
626,92;-21,000
627,49;-65,000
628,07;87,000
628,64;21,000
629,21;39,000
629,78;20,000
630,36;99,000
630,93;-27,000
631,50;94,000
632,07;19,000
632,65;43,000
633,22;29,000
633,79;-90,000
634,36;24,000
634,93;-73,000
635,51;-32,000
636,08;-26,000
636,65;62,000
637,22;-10,0000
637,79;-19,000
638,37;54,000
638,94;88,000
639,51;-2,0000
640,08;109,00
640,65;59,000
641,22;3,0000
641,80;66,000
642,37;-39,000
642,94;-38,000
643,51;15,000
644,08;-57,000
644,65;32,000
645,22;34,000
645,80;48,000
646,37;22,000
646,94;-38,000
647,51;45,000
648,08;30,000
648,65;76,000
649,22;88,000
649,79;76,000
650,36;5,0000
650,93;85,000
651,51;108,00
652,08;30,000
652,65;60,000
653,22;68,000
653,79;112,00
654,36;-5,0000
654,93;177,00
655,50;-91,000
656,07;93,000
656,64;-84,000
657,21;-59,000
657,78;175,00
658,35;14,000
658,92;-65,000
659,49;69,000
660,06;-33,000
660,63;204,00
661,20;68,000
661,77;101,00
662,34;115,00
662,91;40,000
663,48;68,000
664,05;99,000
664,62;152,00
665,19;92,000
665,76;56,000
666,33;46,000
666,90;73,000
667,47;137,00
668,04;31,000
668,61;63,000
669,18;-1,0000
669,75;4,0000
670,32;102,00
670,89;141,00
671,46;-31,000
672,03;-52,000
672,60;-33,000
673,17;106,00
673,74;18,000
674,30;-83,000
674,87;57,000
675,44;109,00
676,01;18,000
676,58;-12,000
677,15;135,00
677,72;130,00
678,29;-64,000
678,86;94,000
679,42;74,000
679,99;34,000
680,56;80,000
681,13;-38,000
681,70;90,000
682,27;38,000
682,84;151,00
683,40;11,000
683,97;36,000
684,54;88,000
685,11;23,000
685,68;56,000
686,25;51,000
686,81;-35,000
687,38;-18,000
687,95;99,000
688,52;-6,0000
689,09;10,0000
689,65;-64,000
690,22;-19,000
690,79;-19,000
691,36;42,000
691,92;97,000
692,49;28,000
693,06;51,000
693,63;54,000
694,20;69,000
694,76;-86,000
695,33;19,000
695,90;104,00
696,47;-57,000
697,03;36,000
697,60;24,000
698,17;80,000
698,73;-6,0000
699,30;38,000
699,87;45,000
700,44;66,000
701,00;74,000
701,57;81,000
702,14;-38,000
702,70;64,000
703,27;41,000
703,84;96,000
704,40;19,000
704,97;-32,000
705,54;-26,000
706,10;-18,000
706,67;-46,000
707,24;-54,000
707,80;-17,000
708,37;23,000
708,94;9,0000
709,50;55,000
710,07;-8,0000
710,64;-50,000
711,20;-77,000
711,77;-47,000
712,33;95,000
712,90;22,000
713,47;49,000
714,03;54,000
714,60;-39,000
715,16;1,0000
715,73;-116,00
716,30;51,000
716,86;65,000
717,43;4,0000
717,99;-69,000
718,56;215,00
719,12;39,000
719,69;10,0000
720,26;-12,000
720,82;23,000
721,39;-21,000
721,95;62,000
722,52;104,00
723,08;29,000
723,65;20,000
724,21;-13,000
724,78;102,00
725,34;98,000
725,91;83,000
726,47;82,000
727,04;35,000
727,60;-52,000
728,17;31,000
728,73;38,000
729,30;104,00
729,86;23,000
730,43;76,000
730,99;4,0000
731,56;73,000
732,12;-22,000
732,68;-65,000
733,25;-12,000
733,81;14,000
734,38;16,000
734,94;9,0000
735,51;-60,000
736,07;45,000
736,63;102,00
737,20;42,000
737,76;84,000
738,33;29,000
738,89;-2,0000
739,46;66,000
740,02;0
740,58;92,000
741,15;93,000
741,71;2,0000
742,27;59,000
742,84;-20,000
743,40;-1,0000
743,97;99,000
744,53;29,000
745,09;26,000
745,66;-1,0000
746,22;84,000
746,78;105,00
747,35;24,000
747,91;40,000
748,47;64,000
749,04;41,000
749,60;9,0000
750,16;82,000
750,72;-14,000
751,29;6,0000
751,85;8,0000
752,41;45,000
752,98;14,000
753,54;30,000
754,10;-16,000
754,66;25,000
755,23;44,000
755,79;17,000
756,35;-42,000
756,91;32,000
757,48;52,000
758,04;-66,000
758,60;111,00
759,16;57,000
759,73;-17,000
760,29;37,000
760,85;-3,0000
761,41;100,000
761,98;21,000
762,54;160,00
763,10;21,000
763,66;0
764,22;46,000
764,79;-1,0000
765,35;53,000
765,91;85,000
766,47;20,000
767,03;44,000
767,59;91,000
768,16;82,000
768,72;19,000
769,28;74,000
769,84;11,000
770,40;-26,000
770,96;-5,0000
771,52;6,0000
772,09;89,000
772,65;-16,000
773,21;21,000
773,77;44,000
774,33;80,000
774,89;32,000
775,45;-19,000
776,01;69,000
776,57;119,00
777,13;73,000
777,70;-86,000
778,26;47,000
778,82;-83,000
779,38;47,000
779,94;22,000
780,50;27,000
781,06;23,000
781,62;5,0000
782,18;-16,000
782,74;-52,000
783,30;-51,000
783,86;45,000
784,42;-2,0000
784,98;64,000
785,54;-25,000
786,10;142,00
786,66;86,000
787,22;5,0000
787,78;18,000
788,34;-6,0000
788,90;22,000
789,46;-129,00
790,02;-116,00
790,58;12,000
791,14;8,0000
791,70;117,00
792,26;-12,000
792,82;-13,000
793,38;346,00
793,94;101,00
794,50;9,0000
795,06;86,000
795,62;-51,000
796,17;35,000
796,73;-21,000
797,29;23,000
797,85;-47,000
798,41;35,000
798,97;-89,000
799,53;4,0000
800,09;68,000
800,65;-121,00
801,21;25,000
801,76;26,000
802,32;21,000
802,88;67,000
803,44;7,0000
804,00;152,00
804,56;66,000
805,12;12,000
805,67;83,000
806,23;24,000
806,79;40,000
807,35;-41,000
807,91;-83,000
808,46;-7,0000
809,02;1,0000
809,58;-33,000
810,14;54,000
810,70;-37,000
811,26;-9,0000
811,81;24,000
812,37;41,000
812,93;21,000
813,49;-92,000
814,04;-17,000
814,60;-33,000
815,16;-16,000
815,72;58,000
816,27;56,000
816,83;-31,000
817,39;-29,000
817,95;46,000
818,50;-16,000
819,06;-127,00
819,62;-90,000
820,18;79,000
820,73;12,000
821,29;26,000
821,85;-40,000
822,40;-29,000
822,96;0
823,52;37,000
824,07;-62,000
824,63;-9,0000
825,19;20,000
825,74;87,000
826,30;34,000
826,86;-36,000
827,41;-18,000
827,97;-10,0000
828,53;-42,000
829,08;9,0000
829,64;47,000
830,20;107,00
830,75;-64,000
831,31;20,000
831,86;-88,000
832,42;7,0000
832,98;46,000
833,53;0
834,09;57,000
834,64;-130,00
835,20;-2,0000
835,76;70,000
836,31;-27,000
836,87;14,000
837,42;25,000
837,98;86,000
838,53;-15,000
839,09;25,000
839,64;29,000
840,20;11,000
840,75;-2,0000
841,31;42,000
841,87;37,000
842,42;155,00
842,98;35,000
843,53;123,00
844,09;10,0000
844,64;-49,000
845,20;17,000
845,75;6,0000
846,31;92,000
846,86;29,000
847,41;31,000
847,97;78,000
848,52;37,000
849,08;31,000
849,63;-132,00
850,19;83,000
850,74;49,000
851,30;22,000
851,85;61,000
852,41;-8,0000
852,96;28,000
853,51;-25,000
854,07;29,000
854,62;25,000
855,18;-35,000
855,73;54,000
856,28;0
856,84;-50,000
857,39;-73,000
857,95;-22,000
858,50;-14,000
859,05;17,000
859,61;79,000
860,16;-46,000
860,71;95,000
861,27;-103,00
861,82;24,000
862,37;-42,000
862,93;-13,000
863,48;28,000
864,03;-13,000
864,59;25,000
865,14;55,000
865,69;111,00
866,25;128,00
866,80;76,000
867,35;55,000
867,90;20,000
868,46;96,000
869,01;31,000
869,56;34,000
870,12;50,000
870,67;4,0000
871,22;26,000
871,77;70,000
872,33;-59,000
872,88;110,00
873,43;-35,000
873,98;-15,000
874,54;83,000
875,09;-14,000
875,64;34,000
876,19;34,000
876,74;-17,000
877,30;38,000
877,85;-60,000
878,40;37,000
878,95;8,0000
879,50;-62,000
880,06;83,000
880,61;7,0000
881,16;102,00
881,71;49,000
882,26;104,00
882,81;-26,000
883,37;85,000
883,92;60,000
884,47;-29,000
885,02;67,000
885,57;140,00
886,12;62,000
886,67;-10,0000
887,22;16,000
887,78;2,0000
888,33;-61,000
888,88;26,000
889,43;-14,000
889,98;34,000
890,53;-56,000
891,08;78,000
891,63;13,000
892,18;-43,000
892,73;178,00
893,28;60,000
893,83;-8,0000
894,38;-39,000
894,93;-40,000
895,48;51,000
896,03;-18,000
896,59;-13,000
897,14;-25,000
897,69;56,000
898,24;8,0000
898,79;-20,000
899,34;-65,000
899,89;87,000
900,44;26,000
900,99;136,00
901,53;-61,000
902,08;-30,000
902,63;41,000
903,18;18,000
903,73;33,000
904,28;56,000
904,83;-18,000
905,38;-4,0000
905,93;114,00
906,48;10,0000
907,03;70,000
907,58;9,0000
908,13;6,0000
908,68;-35,000
909,23;70,000
909,78;-26,000
910,32;33,000
910,87;66,000
911,42;131,00
911,97;7,0000
912,52;36,000
913,07;-5,0000
913,62;38,000
914,17;17,000
914,71;36,000
915,26;181,00
915,81;14,000
916,36;-48,000
916,91;-38,000
917,46;-5,0000
918,00;42,000
918,55;53,000
919,10;-30,000
919,65;-109,00
920,20;41,000
920,74;25,000
921,29;7,0000
921,84;21,000
922,39;83,000
922,94;34,000
923,48;-93,000
924,03;111,00
924,58;-51,000
925,13;-50,000
925,67;-45,000
926,22;15,000
926,77;-72,000
927,32;-69,000
927,86;6,0000
928,41;6,0000
928,96;-26,000
929,50;-52,000
930,05;24,000
930,60;-52,000
931,15;1,0000
931,69;-51,000
932,24;-30,000
932,79;5,0000
933,33;-44,000
933,88;26,000
934,43;150,00
934,97;-18,000
935,52;36,000
936,07;-61,000
936,61;-38,000
937,16;-13,000
937,71;-4,0000
938,25;180,00
938,80;-83,000
939,34;-51,000
939,89;-17,000
940,44;66,000
940,98;-22,000
941,53;80,000
942,07;4,0000
942,62;-10,0000
943,17;-84,000
943,71;10,0000
944,26;-49,000
944,80;-10,0000
945,35;-44,000
945,89;-12,000
946,44;55,000
946,99;104,00
947,53;54,000
948,08;26,000
948,62;-1,0000
949,17;71,000
949,71;36,000
950,26;26,000
950,80;-41,000
951,35;10,0000
951,89;-26,000
952,44;-27,000
952,98;-16,000
953,53;-5,0000
954,07;-5,0000
954,62;10,0000
955,16;-28,000
955,71;47,000
956,25;-48,000
956,79;51,000
957,34;7,0000
957,88;-19,000
958,43;-6,0000
958,97;127,00
959,52;-82,000
960,06;95,000
960,60;85,000
961,15;84,000
961,69;53,000
962,24;-44,000
962,78;30,000
963,32;-11,000
963,87;38,000
964,41;18,000
964,96;16,000
965,50;25,000
966,04;108,00
966,59;-18,000
967,13;67,000
967,67;-76,000
968,22;35,000
968,76;89,000
969,30;110,00
969,85;66,000
970,39;-42,000
970,93;95,000
971,47;53,000
972,02;39,000
972,56;110,00
973,10;65,000
973,65;23,000
974,19;36,000
974,73;11,000
975,27;-66,000
975,82;-23,000
976,36;-42,000
976,90;-40,000
977,44;-64,000
977,99;71,000
978,53;-42,000
979,07;-59,000
979,61;97,000
980,16;96,000
980,70;-15,000
981,24;73,000
981,78;2,0000
982,32;-10,0000
982,87;37,000
983,41;49,000
983,95;61,000
984,49;37,000
985,03;44,000
985,57;41,000
986,12;52,000
986,66;-6,0000
987,20;35,000
987,74;47,000
988,28;-2,0000
988,82;29,000
989,36;5,0000
989,91;-44,000
990,45;-38,000
990,99;0
991,53;39,000
992,07;-19,000
992,61;4,0000
993,15;0
993,69;-52,000
994,23;16,000
994,77;131,00
995,31;46,000
995,86;-11,000
996,40;-12,000
996,94;-15,000
997,48;91,000
998,02;25,000
998,56;3,0000
999,10;-39,000
999,64;0
1000,18;2,0000
1000,72;40,000
1001,26;80,000
1001,80;-26,000
1002,34;125,00
1002,88;-8,0000
1003,42;53,000
1003,96;-19,000
1004,50;11,000
1005,04;-18,000
1005,58;32,000
1006,12;46,000
1006,66;-64,000
1007,20;91,000
1007,73;14,000
1008,27;166,00
1008,81;101,00
1009,35;35,000
1009,89;27,000
1010,43;2,0000
1010,97;18,000
1011,51;6,0000
1012,05;40,000
1012,59;-46,000
1013,13;39,000
1013,66;43,000
1014,20;74,000
1014,74;-56,000
1015,28;-12,000
1015,82;-51,000
1016,36;-44,000
1016,90;48,000
1017,43;-54,000
1017,97;120,00
1018,51;98,000
1019,05;-62,000
1019,59;-20,000
1020,13;72,000
1020,66;-26,000
1021,20;-8,0000
1021,74;-29,000
1022,28;-27,000
1022,81;7,0000
1023,35;-36,000
1023,89;-147,00
1024,43;9,0000
1024,97;14,000
1025,50;-4,0000
1026,04;27,000
1026,58;0
1027,12;94,000
1027,65;34,000
1028,19;11,000
1028,73;-54,000
1029,26;30,000
1029,80;41,000
1030,34;11,000
1030,88;11,000
1031,41;-28,000
1031,95;-30,000
1032,49;-55,000
1033,02;-17,000
1033,56;-33,000
1034,10;-54,000
1034,63;-118,00
1035,17;75,000
1035,71;-13,000
1036,24;-90,000
1036,78;47,000
1037,32;10,0000
1037,85;52,000
1038,39;-45,000
1038,92;116,00
1039,46;-126,00
1040,00;26,000
1040,53;2,0000
1041,07;-8,0000
1041,60;-41,000
1042,14;-46,000
1042,68;-14,000
1043,21;-33,000
1043,75;47,000
1044,28;-9,0000
1044,82;-134,00
1045,35;-6,0000
1045,89;64,000
1046,42;-37,000
1046,96;-19,000
1047,49;-7,0000
1048,03;-35,000
1048,57;-43,000
1049,10;34,000
1049,64;2,0000
1050,17;-68,000
1050,70;77,000
1051,24;63,000
1051,77;5,0000
1052,31;76,000
1052,84;-23,000
1053,38;103,00
1053,91;3,0000
1054,45;53,000
1054,98;-43,000
1055,52;27,000
1056,05;-46,000
1056,59;-55,000
1057,12;21,000
1057,65;118,00
1058,19;20,000
1058,72;128,00
1059,26;-13,000
1059,79;-15,000
1060,32;61,000
1060,86;26,000
1061,39;16,000
1061,93;37,000
1062,46;29,000
1062,99;-7,0000
1063,53;47,000
1064,06;15,000
1064,59;-2,0000
1065,13;5,0000
1065,66;-29,000
1066,19;49,000
1066,73;77,000
1067,26;-68,000
1067,79;58,000
1068,33;5,0000
1068,86;-12,000
1069,39;23,000
1069,92;90,000
1070,46;-100,000
1070,99;56,000
1071,52;-11,000
1072,05;66,000
1072,59;1,0000
1073,12;41,000
1073,65;-41,000
1074,18;86,000
1074,72;24,000
1075,25;-46,000
1075,78;9,0000
1076,31;-26,000
1076,85;121,00
1077,38;43,000
1077,91;4,0000
1078,44;-37,000
1078,97;73,000
1079,51;-26,000
1080,04;-68,000
1080,57;-23,000
1081,10;10,0000
1081,63;90,000
1082,16;-142,00
1082,70;-54,000
1083,23;-61,000
1083,76;-5,0000
1084,29;-19,000
1084,82;-26,000
1085,35;53,000
1085,88;-33,000
1086,41;40,000
1086,94;-94,000
1087,48;45,000
1088,01;-13,000
1088,54;10,0000
1089,07;-47,000
1089,60;-32,000
1090,13;105,00
1090,66;-42,000
1091,19;52,000
1091,72;27,000
1092,25;-37,000
1092,78;63,000
1093,31;56,000
1093,84;45,000
1094,37;40,000
1094,90;23,000
1095,43;-101,00
1095,96;33,000
1096,49;1,0000
1097,02;52,000
1097,55;-19,000
1098,08;-77,000
1098,61;-90,000
1099,14;-82,000
1099,67;14,000
1100,20;-53,000
