M- 27 del, 5, sur
Integration time: 5000 ms
Average: 1 scans
Nr of pixels used for smoothing: 0
Data measured with spectrometer serial number: 0604021S1
Wave   ;Sample
[nm]   ;[counts]
173,70;-22,000
174,30;84,000
174,90;-34,000
175,50;122,00
176,10;94,000
176,70;28,000
177,30;4,0000
177,90;-15,000
178,50;22,000
179,10;5,0000
179,70;33,000
180,30;41,000
180,89;-42,000
181,49;11,000
182,09;-67,000
182,69;55,000
183,29;-9,0000
183,89;60,000
184,49;23,000
185,09;78,000
185,69;-29,000
186,29;-15,000
186,89;-22,000
187,48;77,000
188,08;29,000
188,68;-79,000
189,28;36,000
189,88;32,000
190,48;-97,000
191,08;-43,000
191,68;12,000
192,28;-26,000
192,87;-24,000
193,47;1,0000
194,07;30,000
194,67;10,0000
195,27;-30,000
195,87;-50,000
196,47;-79,000
197,06;-72,000
197,66;67,000
198,26;-67,000
198,86;39,000
199,46;-17,000
200,06;20,000
200,66;-135,00
201,25;35,000
201,85;61,000
202,45;92,000
203,05;99,000
203,65;10,0000
204,24;126,00
204,84;-129,00
205,44;99,000
206,04;106,00
206,64;41,000
207,24;-31,000
207,83;-94,000
208,43;17,000
209,03;-96,000
209,63;-3,0000
210,22;121,00
210,82;42,000
211,42;-20,000
212,02;11,000
212,62;-10,0000
213,21;-33,000
213,81;-5,0000
214,41;-9,0000
215,01;95,000
215,60;5,0000
216,20;35,000
216,80;30,000
217,40;69,000
218,00;7,0000
218,59;62,000
219,19;-6,0000
219,79;109,00
220,38;73,000
220,98;-56,000
221,58;1,0000
222,18;71,000
222,77;60,000
223,37;-26,000
223,97;-41,000
224,57;-46,000
225,16;2,0000
225,76;65,000
226,36;-29,000
226,95;-19,000
227,55;44,000
228,15;-43,000
228,75;124,00
229,34;-99,000
229,94;119,00
230,54;-18,000
231,13;-31,000
231,73;-1,0000
232,33;-1,0000
232,92;12,000
233,52;83,000
234,12;-19,000
234,71;78,000
235,31;-17,000
235,91;67,000
236,50;81,000
237,10;-6,0000
237,70;50,000
238,29;40,000
238,89;42,000
239,49;21,000
240,08;-45,000
240,68;-6,0000
241,28;44,000
241,87;74,000
242,47;58,000
243,06;5,0000
243,66;60,000
244,26;-33,000
244,85;52,000
245,45;-28,000
246,05;-24,000
246,64;9,0000
247,24;-80,000
247,83;41,000
248,43;20,000
249,03;108,00
249,62;46,000
250,22;118,00
250,81;-77,000
251,41;40,000
252,01;88,000
252,60;14,000
253,20;32,000
253,79;76,000
254,39;-13,000
254,98;19,000
255,58;106,00
256,18;-4,0000
256,77;131,00
257,37;-50,000
257,96;-46,000
258,56;-26,000
259,15;139,00
259,75;-2,0000
260,34;36,000
260,94;27,000
261,53;-4,0000
262,13;-24,000
262,73;76,000
263,32;26,000
263,92;81,000
264,51;56,000
265,11;54,000
265,70;89,000
266,30;9,0000
266,89;-9,0000
267,49;79,000
268,08;-6,0000
268,68;99,000
269,27;-72,000
269,87;56,000
270,46;47,000
271,06;27,000
271,65;9,0000
272,25;46,000
272,84;-13,000
273,44;25,000
274,03;-53,000
274,62;46,000
275,22;40,000
275,81;69,000
276,41;39,000
277,00;45,000
277,60;-36,000
278,19;3,0000
278,79;-41,000
279,38;38,000
279,98;41,000
280,57;33,000
281,16;74,000
281,76;-1,0000
282,35;42,000
282,95;62,000
283,54;9,0000
284,14;-71,000
284,73;66,000
285,32;87,000
285,92;-5,0000
286,51;-98,000
287,11;2,0000
287,70;38,000
288,29;-18,000
288,89;-20,000
289,48;69,000
290,08;104,00
290,67;-17,000
291,26;33,000
291,86;9,0000
292,45;-7,0000
293,04;21,000
293,64;56,000
294,23;28,000
294,83;16,000
295,42;-50,000
296,01;58,000
296,61;11,000
297,20;29,000
297,79;43,000
298,39;101,00
298,98;113,00
299,57;-6,0000
300,17;104,00
300,76;67,000
301,35;27,000
301,95;82,000
302,54;-77,000
303,13;-23,000
303,73;74,000
304,32;3,0000
304,91;-1,0000
305,51;-57,000
306,10;23,000
306,69;37,000
307,28;-58,000
307,88;23,000
308,47;-74,000
309,06;10,0000
309,66;16,000
310,25;96,000
310,84;109,00
311,43;161,00
312,03;181,00
312,62;271,00
313,21;214,00
313,81;233,00
314,40;406,00
314,99;523,00
315,58;660,00
316,18;753,00
316,77;658,00
317,36;644,00
317,95;538,00
318,54;427,00
319,14;217,00
319,73;158,00
320,32;45,000
320,91;-50,000
321,51;105,00
322,10;128,00
322,69;17,000
323,28;55,000
323,87;40,000
324,47;158,00
325,06;114,00
325,65;203,00
326,24;113,00
326,83;265,00
327,43;231,00
328,02;278,00
328,61;263,00
329,20;236,00
329,79;258,00
330,39;433,00
330,98;488,00
331,57;270,00
332,16;365,00
332,75;408,00
333,34;448,00
333,93;603,00
334,53;690,00
335,12;1008,0
335,71;1721,0
336,30;3157,0
336,89;4218,0
337,48;4373,0
338,07;4260,0
338,67;4121,0
339,26;3826,0
339,85;3014,0
340,44;1804,0
341,03;542,00
341,62;289,00
342,21;346,00
342,80;302,00
343,39;232,00
343,99;328,00
344,58;227,00
345,17;235,00
345,76;274,00
346,35;364,00
346,94;373,00
347,53;407,00
348,12;512,00
348,71;480,00
349,30;412,00
349,89;645,00
350,48;768,00
351,07;1060,0
351,66;1203,0
352,26;1532,0
352,85;2220,0
353,44;2774,0
354,03;2914,0
354,62;2933,0
355,21;3172,0
355,80;3777,0
356,39;4521,0
356,98;6152,0
357,57;6687,0
358,16;6430,0
358,75;5971,0
359,34;5677,0
359,93;5140,0
360,52;3888,0
361,11;2336,0
361,70;600,00
362,29;526,00
362,88;320,00
363,47;505,00
364,06;396,00
364,65;601,00
365,24;570,00
365,83;658,00
366,42;804,00
367,01;846,00
367,60;774,00
368,19;912,00
368,78;1046,0
369,37;1088,0
369,95;1283,0
370,54;1734,0
371,13;1575,0
371,72;1636,0
372,31;1535,0
372,90;1623,0
373,49;1769,0
374,08;2179,0
374,67;2519,0
375,26;3216,0
375,85;2931,0
376,44;3117,0
377,03;3030,0
377,61;2910,0
378,20;2667,0
378,79;2425,0
379,38;2815,0
379,97;3663,0
380,56;4020,0
381,15;3948,0
381,74;3720,0
382,33;3615,0
382,91;3234,0
383,50;2644,0
384,09;1797,0
384,68;1303,0
385,27;1403,0
385,86;1626,0
386,45;1744,0
387,03;1771,0
387,62;1966,0
388,21;2059,0
388,80;1936,0
389,39;1831,0
389,98;1842,0
390,57;1697,0
391,15;1745,0
391,74;1527,0
392,33;1464,0
392,92;1343,0
393,51;1527,0
394,09;1626,0
394,68;1357,0
395,27;1425,0
395,86;1219,0
396,45;1292,0
397,03;1163,0
397,62;1130,0
398,21;1189,0
398,80;1519,0
399,39;1951,0
399,97;1953,0
400,56;2047,0
401,15;1841,0
401,74;1770,0
402,32;1616,0
402,91;1544,0
403,50;1191,0
404,09;1122,0
404,67;1400,0
405,26;1914,0
405,85;1931,0
406,44;2047,0
407,02;2088,0
407,61;2063,0
408,20;1819,0
408,78;1856,0
409,37;1494,0
409,96;1246,0
410,55;1146,0
411,13;1256,0
411,72;1220,0
412,31;1215,0
412,89;1256,0
413,48;1376,0
414,07;1504,0
414,65;1347,0
415,24;1486,0
415,83;1416,0
416,42;1392,0
417,00;1476,0
417,59;1378,0
418,18;1406,0
418,76;1512,0
419,35;1678,0
419,94;1850,0
420,52;1696,0
421,11;1691,0
421,69;1752,0
422,28;1670,0
422,87;1554,0
423,45;1532,0
424,04;1342,0
424,63;1307,0
425,21;1402,0
425,80;1557,0
426,38;1758,0
426,97;1863,0
427,56;1752,0
428,14;1746,0
428,73;1785,0
429,31;1529,0
429,90;1413,0
430,49;1125,0
431,07;813,00
431,66;741,00
432,24;849,00
432,83;927,00
433,42;987,00
434,00;1329,0
434,59;1338,0
435,17;1372,0
435,76;1412,0
436,34;1467,0
436,93;1309,0
437,51;1279,0
438,10;908,00
438,69;726,00
439,27;760,00
439,86;508,00
440,44;696,00
441,03;697,00
441,61;773,00
442,20;719,00
442,78;658,00
443,37;625,00
443,95;808,00
444,54;704,00
445,12;659,00
445,71;641,00
446,29;658,00
446,88;639,00
447,46;828,00
448,05;714,00
448,63;744,00
449,22;813,00
449,80;733,00
450,39;651,00
450,97;654,00
451,56;577,00
452,14;510,00
452,72;426,00
453,31;476,00
453,89;581,00
454,48;513,00
455,06;610,00
455,65;519,00
456,23;564,00
456,81;748,00
457,40;787,00
457,98;580,00
458,57;743,00
459,15;621,00
459,74;677,00
460,32;735,00
460,90;606,00
461,49;601,00
462,07;596,00
462,66;684,00
463,24;731,00
463,82;756,00
464,41;696,00
464,99;765,00
465,57;778,00
466,16;809,00
466,74;709,00
467,33;691,00
467,91;687,00
468,49;527,00
469,08;498,00
469,66;566,00
470,24;441,00
470,83;527,00
471,41;495,00
471,99;488,00
472,58;549,00
473,16;428,00
473,74;573,00
474,33;426,00
474,91;343,00
475,49;282,00
476,08;403,00
476,66;464,00
477,24;413,00
477,82;403,00
478,41;460,00
478,99;501,00
479,57;570,00
480,16;512,00
480,74;541,00
481,32;603,00
481,90;654,00
482,49;766,00
483,07;613,00
483,65;762,00
484,23;588,00
484,82;747,00
485,40;790,00
485,98;940,00
486,56;966,00
487,15;999,00
487,73;1143,0
488,31;1052,0
488,89;1067,0
489,47;1012,0
490,06;716,00
490,64;837,00
491,22;744,00
491,80;724,00
492,39;667,00
492,97;697,00
493,55;656,00
494,13;532,00
494,71;455,00
495,29;440,00
495,88;473,00
496,46;448,00
497,04;375,00
497,62;480,00
498,20;527,00
498,78;333,00
499,37;430,00
499,95;549,00
500,53;676,00
501,11;585,00
501,69;668,00
502,27;603,00
502,85;654,00
503,44;614,00
504,02;465,00
504,60;412,00
505,18;463,00
505,76;372,00
506,34;282,00
506,92;290,00
507,50;348,00
508,08;414,00
508,67;303,00
509,25;305,00
509,83;197,00
510,41;345,00
510,99;257,00
511,57;336,00
512,15;373,00
512,73;344,00
513,31;312,00
513,89;218,00
514,47;237,00
515,05;329,00
515,63;291,00
516,21;289,00
516,79;340,00
517,38;301,00
517,96;258,00
518,54;341,00
519,12;312,00
519,70;346,00
520,28;315,00
520,86;341,00
521,44;360,00
522,02;295,00
522,60;236,00
523,18;150,00
523,76;314,00
524,34;304,00
524,92;262,00
525,50;294,00
526,08;291,00
526,66;229,00
527,24;266,00
527,82;260,00
528,39;225,00
528,97;196,00
529,55;309,00
530,13;263,00
530,71;271,00
531,29;265,00
531,87;245,00
532,45;319,00
533,03;415,00
533,61;257,00
534,19;378,00
534,77;221,00
535,35;205,00
535,93;308,00
536,51;279,00
537,08;6,0000
537,66;292,00
538,24;319,00
538,82;349,00
539,40;268,00
539,98;356,00
540,56;317,00
541,14;268,00
541,72;289,00
542,29;320,00
542,87;381,00
543,45;289,00
544,03;316,00
544,61;282,00
545,19;390,00
545,77;260,00
546,34;309,00
546,92;310,00
547,50;291,00
548,08;320,00
548,66;329,00
549,23;262,00
549,81;177,00
550,39;392,00
550,97;244,00
551,55;281,00
552,13;333,00
552,70;389,00
553,28;331,00
553,86;273,00
554,44;300,00
555,01;313,00
555,59;249,00
556,17;381,00
556,75;294,00
557,33;280,00
557,90;399,00
558,48;287,00
559,06;247,00
559,64;258,00
560,21;367,00
560,79;245,00
561,37;337,00
561,95;424,00
562,52;294,00
563,10;244,00
563,68;297,00
564,25;261,00
564,83;251,00
565,41;323,00
565,99;333,00
566,56;367,00
567,14;299,00
567,72;416,00
568,29;499,00
568,87;641,00
569,45;489,00
570,02;436,00
570,60;360,00
571,18;480,00
571,75;252,00
572,33;394,00
572,91;398,00
573,48;223,00
574,06;172,00
574,64;317,00
575,21;351,00
575,79;322,00
576,37;317,00
576,94;269,00
577,52;347,00
578,09;367,00
578,67;291,00
579,25;325,00
579,82;311,00
580,40;368,00
580,97;209,00
581,55;198,00
582,13;350,00
582,70;278,00
583,28;329,00
583,85;298,00
584,43;228,00
585,01;302,00
585,58;318,00
586,16;356,00
586,73;266,00
587,31;346,00
587,88;276,00
588,46;360,00
589,03;357,00
589,61;304,00
590,18;253,00
590,76;243,00
591,34;328,00
591,91;150,00
592,49;385,00
593,06;316,00
593,64;307,00
594,21;344,00
594,79;312,00
595,36;260,00
595,94;244,00
596,51;408,00
597,09;326,00
597,66;251,00
598,24;158,00
598,81;328,00
599,38;208,00
599,96;294,00
600,53;223,00
601,11;304,00
601,68;312,00
602,26;253,00
602,83;349,00
603,41;363,00
603,98;309,00
604,56;388,00
605,13;201,00
605,70;200,00
606,28;283,00
606,85;236,00
607,43;183,00
608,00;256,00
608,57;232,00
609,15;219,00
609,72;232,00
610,30;240,00
610,87;272,00
611,44;215,00
612,02;312,00
612,59;100,000
613,16;226,00
613,74;218,00
614,31;277,00
614,89;295,00
615,46;191,00
616,03;201,00
616,61;286,00
617,18;253,00
617,75;270,00
618,33;257,00
618,90;255,00
619,47;332,00
620,05;243,00
620,62;239,00
621,19;252,00
621,77;213,00
622,34;207,00
622,91;237,00
623,48;217,00
624,06;199,00
624,63;243,00
625,20;113,00
625,78;146,00
626,35;208,00
626,92;188,00
627,49;225,00
628,07;252,00
628,64;180,00
629,21;203,00
629,78;244,00
630,36;209,00
630,93;213,00
631,50;212,00
632,07;279,00
632,65;235,00
633,22;142,00
633,79;163,00
634,36;132,00
634,93;162,00
635,51;293,00
636,08;198,00
636,65;251,00
637,22;277,00
637,79;252,00
638,37;249,00
638,94;234,00
639,51;208,00
640,08;250,00
640,65;174,00
641,22;197,00
641,80;190,00
642,37;410,00
642,94;227,00
643,51;410,00
644,08;270,00
644,65;238,00
645,22;240,00
645,80;335,00
646,37;305,00
646,94;234,00
647,51;305,00
648,08;364,00
648,65;360,00
649,22;526,00
649,79;329,00
650,36;571,00
650,93;347,00
651,51;457,00
652,08;422,00
652,65;510,00
653,22;507,00
653,79;502,00
654,36;544,00
654,93;769,00
655,50;919,00
656,07;1320,0
656,64;1503,0
657,21;1640,0
657,78;1848,0
658,35;1763,0
658,92;1651,0
659,49;1594,0
660,06;1307,0
660,63;1156,0
661,20;1124,0
661,77;982,00
662,34;848,00
662,91;743,00
663,48;653,00
664,05;568,00
664,62;570,00
665,19;369,00
665,76;526,00
666,33;333,00
666,90;340,00
667,47;389,00
668,04;236,00
668,61;330,00
669,18;330,00
669,75;336,00
670,32;225,00
670,89;381,00
671,46;295,00
672,03;243,00
672,60;223,00
673,17;293,00
673,74;155,00
674,30;170,00
674,87;2,0000
675,44;336,00
676,01;262,00
676,58;225,00
677,15;246,00
677,72;-60,000
678,29;200,00
678,86;271,00
679,42;329,00
679,99;173,00
680,56;131,00
681,13;238,00
681,70;143,00
682,27;253,00
682,84;-31,000
683,40;189,00
683,97;93,000
684,54;106,00
685,11;129,00
685,68;110,00
686,25;38,000
686,81;133,00
687,38;151,00
687,95;130,00
688,52;52,000
689,09;45,000
689,65;194,00
690,22;107,00
690,79;196,00
691,36;225,00
691,92;181,00
692,49;139,00
693,06;6,0000
693,63;217,00
694,20;221,00
694,76;181,00
695,33;3,0000
695,90;202,00
696,47;165,00
697,03;218,00
697,60;201,00
698,17;189,00
698,73;182,00
699,30;193,00
699,87;180,00
700,44;226,00
701,00;222,00
701,57;176,00
702,14;64,000
702,70;187,00
703,27;157,00
703,84;245,00
704,40;105,00
704,97;71,000
705,54;158,00
706,10;223,00
706,67;132,00
707,24;21,000
707,80;80,000
708,37;136,00
708,94;53,000
709,50;56,000
710,07;178,00
710,64;58,000
711,20;126,00
711,77;-12,000
712,33;121,00
712,90;214,00
713,47;99,000
714,03;104,00
714,60;308,00
715,16;212,00
715,73;126,00
716,30;242,00
716,86;241,00
717,43;103,00
717,99;139,00
718,56;112,00
719,12;161,00
719,69;94,000
720,26;144,00
720,82;94,000
721,39;75,000
721,95;168,00
722,52;25,000
723,08;50,000
723,65;188,00
724,21;201,00
724,78;128,00
725,34;141,00
725,91;147,00
726,47;115,00
727,04;125,00
727,60;55,000
728,17;202,00
728,73;100,000
729,30;208,00
729,86;162,00
730,43;81,000
730,99;82,000
731,56;-6,0000
732,12;121,00
732,68;213,00
733,25;103,00
733,81;61,000
734,38;83,000
734,94;232,00
735,51;264,00
736,07;223,00
736,63;104,00
737,20;209,00
737,76;128,00
738,33;151,00
738,89;70,000
739,46;147,00
740,02;51,000
740,58;49,000
741,15;102,00
741,71;147,00
742,27;150,00
742,84;210,00
743,40;255,00
743,97;386,00
744,53;360,00
745,09;416,00
745,66;342,00
746,22;446,00
746,78;466,00
747,35;472,00
747,91;568,00
748,47;523,00
749,04;445,00
749,60;384,00
750,16;411,00
750,72;274,00
751,29;196,00
751,85;56,000
752,41;118,00
752,98;75,000
753,54;94,000
754,10;50,000
754,66;18,000
755,23;140,00
755,79;56,000
756,35;91,000
756,91;106,00
757,48;79,000
758,04;71,000
758,60;-21,000
759,16;120,00
759,73;137,00
760,29;107,00
760,85;10,0000
761,41;139,00
761,98;30,000
762,54;159,00
763,10;106,00
763,66;9,0000
764,22;143,00
764,79;71,000
765,35;72,000
765,91;88,000
766,47;77,000
767,03;64,000
767,59;59,000
768,16;34,000
768,72;26,000
769,28;16,000
769,84;57,000
770,40;122,00
770,96;56,000
771,52;61,000
772,09;89,000
772,65;83,000
773,21;120,00
773,77;-20,000
774,33;109,00
774,89;139,00
775,45;-16,000
776,01;148,00
776,57;151,00
777,13;595,00
777,70;651,00
778,26;654,00
778,82;688,00
779,38;681,00
779,94;666,00
780,50;703,00
781,06;380,00
781,62;125,00
782,18;62,000
782,74;32,000
783,30;82,000
783,86;30,000
784,42;-58,000
784,98;123,00
785,54;86,000
786,10;45,000
786,66;70,000
787,22;-44,000
787,78;170,00
788,34;180,00
788,90;57,000
789,46;115,00
790,02;30,000
790,58;101,00
791,14;66,000
791,70;48,000
792,26;-5,0000
792,82;140,00
793,38;66,000
793,94;59,000
794,50;1,0000
795,06;18,000
795,62;79,000
796,17;5,0000
796,73;108,00
797,29;85,000
797,85;178,00
798,41;71,000
798,97;18,000
799,53;47,000
800,09;9,0000
800,65;87,000
801,21;59,000
801,76;-16,000
802,32;12,000
802,88;110,00
803,44;-78,000
804,00;96,000
804,56;54,000
805,12;27,000
805,67;-36,000
806,23;106,00
806,79;1,0000
807,35;101,00
807,91;19,000
808,46;11,000
809,02;51,000
809,58;7,0000
810,14;-79,000
810,70;-47,000
811,26;-1,0000
811,81;2,0000
812,37;-54,000
812,93;27,000
813,49;20,000
814,04;68,000
814,60;78,000
815,16;-48,000
815,72;91,000
816,27;46,000
816,83;38,000
817,39;0
817,95;107,00
818,50;50,000
819,06;176,00
819,62;227,00
820,18;138,00
820,73;147,00
821,29;219,00
821,85;370,00
822,40;442,00
822,96;368,00
823,52;309,00
824,07;335,00
824,63;338,00
825,19;304,00
825,74;190,00
826,30;349,00
826,86;107,00
827,41;93,000
827,97;79,000
828,53;-72,000
829,08;67,000
829,64;76,000
830,20;-44,000
830,75;61,000
831,31;53,000
831,86;136,00
832,42;67,000
832,98;55,000
833,53;-19,000
834,09;22,000
834,64;-34,000
835,20;83,000
835,76;25,000
836,31;5,0000
836,87;-6,0000
837,42;98,000
837,98;52,000
838,53;28,000
839,09;29,000
839,64;52,000
840,20;23,000
840,75;58,000
841,31;-5,0000
841,87;72,000
842,42;32,000
842,98;101,00
843,53;-8,0000
844,09;113,00
844,64;131,00
845,20;245,00
845,75;164,00
846,31;169,00
846,86;167,00
847,41;194,00
847,97;150,00
848,52;79,000
849,08;-47,000
849,63;70,000
850,19;-63,000
850,74;-30,000
851,30;104,00
851,85;11,000
852,41;110,00
852,96;-3,0000
853,51;50,000
854,07;-27,000
854,62;-1,0000
855,18;-51,000
855,73;37,000
856,28;38,000
856,84;23,000
857,39;30,000
857,95;-173,00
858,50;-8,0000
859,05;20,000
859,61;42,000
860,16;-10,0000
860,71;134,00
861,27;-22,000
861,82;59,000
862,37;117,00
862,93;118,00
863,48;147,00
864,03;124,00
864,59;41,000
865,14;165,00
865,69;74,000
866,25;46,000
866,80;65,000
867,35;146,00
867,90;194,00
868,46;310,00
869,01;313,00
869,56;187,00
870,12;369,00
870,67;337,00
871,22;379,00
871,77;268,00
872,33;279,00
872,88;61,000
873,43;147,00
873,98;157,00
874,54;73,000
875,09;82,000
875,64;84,000
876,19;-4,0000
876,74;-74,000
877,30;10,0000
877,85;-18,000
878,40;22,000
878,95;-47,000
879,50;9,0000
880,06;3,0000
880,61;-16,000
881,16;22,000
881,71;50,000
882,26;89,000
882,81;7,0000
883,37;13,000
883,92;6,0000
884,47;-30,000
885,02;-1,0000
885,57;74,000
886,12;129,00
886,67;28,000
887,22;-10,0000
887,78;-52,000
888,33;55,000
888,88;42,000
889,43;54,000
889,98;20,000
890,53;-33,000
891,08;111,00
891,63;-18,000
892,18;-105,00
892,73;83,000
893,28;-20,000
893,83;-3,0000
894,38;-15,000
894,93;47,000
895,48;-14,000
896,03;-27,000
896,59;73,000
897,14;28,000
897,69;67,000
898,24;25,000
898,79;33,000
899,34;57,000
899,89;-120,00
900,44;13,000
900,99;-74,000
901,53;-2,0000
902,08;64,000
902,63;-22,000
903,18;124,00
903,73;7,0000
904,28;-41,000
904,83;43,000
905,38;-11,000
905,93;7,0000
906,48;83,000
907,03;101,00
907,58;79,000
908,13;45,000
908,68;50,000
909,23;31,000
909,78;8,0000
910,32;29,000
910,87;26,000
911,42;4,0000
911,97;17,000
912,52;-11,000
913,07;46,000
913,62;81,000
914,17;61,000
914,71;117,00
915,26;81,000
915,81;23,000
916,36;160,00
916,91;13,000
917,46;-5,0000
918,00;44,000
918,55;-30,000
919,10;74,000
919,65;115,00
920,20;99,000
920,74;-21,000
921,29;-11,000
921,84;-30,000
922,39;60,000
922,94;-19,000
923,48;49,000
924,03;-1,0000
924,58;-79,000
925,13;-66,000
925,67;76,000
926,22;81,000
926,77;54,000
927,32;5,0000
927,86;36,000
928,41;77,000
928,96;93,000
929,50;56,000
930,05;34,000
930,60;74,000
931,15;-37,000
931,69;-73,000
932,24;-38,000
932,79;-102,00
933,33;141,00
933,88;9,0000
934,43;42,000
934,97;-73,000
935,52;8,0000
936,07;-36,000
936,61;-31,000
937,16;87,000
937,71;76,000
938,25;-39,000
938,80;75,000
939,34;11,000
939,89;91,000
940,44;126,00
940,98;45,000
941,53;100,000
942,07;40,000
942,62;62,000
943,17;34,000
943,71;107,00
944,26;-69,000
944,80;48,000
945,35;-41,000
945,89;64,000
946,44;44,000
946,99;-73,000
947,53;-4,0000
948,08;88,000
948,62;-17,000
949,17;90,000
949,71;15,000
950,26;-32,000
950,80;99,000
951,35;109,00
951,89;-13,000
952,44;101,00
952,98;64,000
953,53;13,000
954,07;36,000
954,62;-113,00
955,16;52,000
955,71;78,000
956,25;-29,000
956,79;-75,000
957,34;5,0000
957,88;72,000
958,43;-82,000
958,97;123,00
959,52;87,000
960,06;-47,000
960,60;-107,00
961,15;-56,000
961,69;-18,000
962,24;62,000
962,78;-15,000
963,32;-2,0000
963,87;-7,0000
964,41;140,00
964,96;-148,00
965,50;24,000
966,04;66,000
966,59;26,000
967,13;94,000
967,67;21,000
968,22;-9,0000
968,76;-37,000
969,30;-15,000
969,85;-26,000
970,39;-37,000
970,93;76,000
971,47;42,000
972,02;132,00
972,56;22,000
973,10;14,000
973,65;-31,000
974,19;67,000
974,73;105,00
975,27;59,000
975,82;64,000
976,36;52,000
976,90;92,000
977,44;-56,000
977,99;21,000
978,53;77,000
979,07;16,000
979,61;21,000
980,16;29,000
980,70;-56,000
981,24;-79,000
981,78;63,000
982,32;130,00
982,87;63,000
983,41;-73,000
983,95;-40,000
984,49;111,00
985,03;9,0000
985,57;17,000
986,12;-9,0000
986,66;-73,000
987,20;8,0000
987,74;26,000
988,28;33,000
988,82;36,000
989,36;-96,000
989,91;-114,00
990,45;107,00
990,99;-18,000
991,53;35,000
992,07;36,000
992,61;47,000
993,15;-43,000
993,69;26,000
994,23;66,000
994,77;-26,000
995,31;64,000
995,86;0
996,40;23,000
996,94;101,00
997,48;13,000
998,02;-115,00
998,56;-25,000
999,10;47,000
999,64;-11,000
1000,18;-76,000
1000,72;-28,000
1001,26;13,000
1001,80;2,0000
1002,34;-24,000
1002,88;65,000
1003,42;11,000
1003,96;9,0000
1004,50;44,000
1005,04;-9,0000
1005,58;-33,000
1006,12;114,00
1006,66;13,000
1007,20;102,00
1007,73;80,000
1008,27;15,000
1008,81;-25,000
1009,35;11,000
1009,89;-4,0000
1010,43;-79,000
1010,97;74,000
1011,51;53,000
1012,05;16,000
1012,59;70,000
1013,13;-12,000
1013,66;107,00
1014,20;-28,000
1014,74;11,000
1015,28;-37,000
1015,82;32,000
1016,36;-30,000
1016,90;8,0000
1017,43;-50,000
1017,97;7,0000
1018,51;-76,000
1019,05;69,000
1019,59;43,000
1020,13;-106,00
1020,66;35,000
1021,20;-32,000
1021,74;-75,000
1022,28;48,000
1022,81;107,00
1023,35;-83,000
1023,89;-79,000
1024,43;-3,0000
1024,97;8,0000
1025,50;-23,000
1026,04;-35,000
1026,58;-20,000
1027,12;32,000
1027,65;-45,000
1028,19;54,000
1028,73;8,0000
1029,26;145,00
1029,80;28,000
1030,34;-58,000
1030,88;-76,000
1031,41;10,0000
1031,95;20,000
1032,49;14,000
1033,02;8,0000
1033,56;-42,000
1034,10;89,000
1034,63;89,000
1035,17;19,000
1035,71;38,000
1036,24;20,000
1036,78;40,000
1037,32;-40,000
1037,85;-20,000
1038,39;172,00
1038,92;-25,000
1039,46;43,000
1040,00;26,000
1040,53;-42,000
1041,07;118,00
1041,60;-79,000
1042,14;7,0000
1042,68;94,000
1043,21;-37,000
1043,75;-15,000
1044,28;40,000
1044,82;77,000
1045,35;70,000
1045,89;68,000
1046,42;-12,000
1046,96;22,000
1047,49;-47,000
1048,03;121,00
1048,57;-98,000
1049,10;-37,000
1049,64;-42,000
1050,17;-50,000
1050,70;54,000
1051,24;-58,000
1051,77;12,000
1052,31;-54,000
1052,84;-76,000
1053,38;3,0000
1053,91;-32,000
1054,45;28,000
1054,98;-28,000
1055,52;142,00
1056,05;-80,000
1056,59;31,000
1057,12;-16,000
1057,65;49,000
1058,19;49,000
1058,72;92,000
1059,26;45,000
1059,79;-39,000
1060,32;-38,000
1060,86;18,000
1061,39;-29,000
1061,93;-6,0000
1062,46;-36,000
1062,99;4,0000
1063,53;-76,000
1064,06;21,000
1064,59;-55,000
1065,13;63,000
1065,66;-27,000
1066,19;-29,000
1066,73;-97,000
1067,26;-44,000
1067,79;6,0000
1068,33;-26,000
1068,86;-15,000
1069,39;7,0000
1069,92;-80,000
1070,46;-3,0000
1070,99;-53,000
1071,52;16,000
1072,05;-3,0000
1072,59;22,000
1073,12;150,00
1073,65;46,000
1074,18;2,0000
1074,72;-84,000
1075,25;-55,000
1075,78;67,000
1076,31;-15,000
1076,85;20,000
1077,38;36,000
1077,91;-27,000
1078,44;22,000
1078,97;-10,0000
1079,51;150,00
1080,04;96,000
1080,57;-86,000
1081,10;-35,000
1081,63;63,000
1082,16;48,000
1082,70;-122,00
1083,23;106,00
1083,76;10,0000
1084,29;-3,0000
1084,82;-2,0000
1085,35;-76,000
1085,88;66,000
1086,41;28,000
1086,94;-7,0000
1087,48;30,000
1088,01;46,000
1088,54;66,000
1089,07;75,000
1089,60;-28,000
1090,13;60,000
1090,66;-38,000
1091,19;11,000
1091,72;-12,000
1092,25;-58,000
1092,78;30,000
1093,31;59,000
1093,84;73,000
1094,37;27,000
1094,90;18,000
1095,43;23,000
1095,96;80,000
1096,49;72,000
1097,02;99,000
1097,55;-61,000
1098,08;-9,0000
1098,61;40,000
1099,14;38,000
1099,67;-13,000
1100,20;-110,00
