M- 17 del, 5
Integration time: 5000 ms
Average: 1 scans
Nr of pixels used for smoothing: 0
Data measured with spectrometer serial number: 0604021S1
Wave   ;Sample
[nm]   ;[counts]
173,70;-108,00
174,30;-17,000
174,90;-48,000
175,50;119,00
176,10;-26,000
176,70;86,000
177,30;-7,0000
177,90;71,000
178,50;-67,000
179,10;-58,000
179,70;3,0000
180,30;49,000
180,89;9,0000
181,49;-7,0000
182,09;-27,000
182,69;61,000
183,29;21,000
183,89;48,000
184,49;49,000
185,09;79,000
185,69;105,00
186,29;-35,000
186,89;-51,000
187,48;10,0000
188,08;-24,000
188,68;100,000
189,28;-30,000
189,88;26,000
190,48;74,000
191,08;14,000
191,68;-2,0000
192,28;39,000
192,87;-21,000
193,47;76,000
194,07;1,0000
194,67;29,000
195,27;9,0000
195,87;-72,000
196,47;-30,000
197,06;72,000
197,66;5,0000
198,26;-1,0000
198,86;32,000
199,46;7,0000
200,06;116,00
200,66;-52,000
201,25;53,000
201,85;-22,000
202,45;-79,000
203,05;114,00
203,65;170,00
204,24;37,000
204,84;51,000
205,44;-23,000
206,04;9,0000
206,64;-12,000
207,24;61,000
207,83;-116,00
208,43;-11,000
209,03;42,000
209,63;101,00
210,22;59,000
210,82;29,000
211,42;-12,000
212,02;53,000
212,62;-67,000
213,21;-7,0000
213,81;-40,000
214,41;-33,000
215,01;-3,0000
215,60;-99,000
216,20;-8,0000
216,80;26,000
217,40;7,0000
218,00;66,000
218,59;42,000
219,19;25,000
219,79;-38,000
220,38;71,000
220,98;18,000
221,58;76,000
222,18;-51,000
222,77;57,000
223,37;-2,0000
223,97;-99,000
224,57;23,000
225,16;16,000
225,76;-2,0000
226,36;-9,0000
226,95;-31,000
227,55;-9,0000
228,15;63,000
228,75;66,000
229,34;111,00
229,94;-35,000
230,54;-41,000
231,13;16,000
231,73;-2,0000
232,33;59,000
232,92;110,00
233,52;-49,000
234,12;-3,0000
234,71;-71,000
235,31;-43,000
235,91;-48,000
236,50;-21,000
237,10;39,000
237,70;62,000
238,29;12,000
238,89;146,00
239,49;16,000
240,08;4,0000
240,68;-23,000
241,28;97,000
241,87;24,000
242,47;26,000
243,06;-39,000
243,66;19,000
244,26;-42,000
244,85;44,000
245,45;-66,000
246,05;-94,000
246,64;-20,000
247,24;5,0000
247,83;22,000
248,43;-5,0000
249,03;61,000
249,62;28,000
250,22;-8,0000
250,81;-12,000
251,41;-28,000
252,01;50,000
252,60;-37,000
253,20;121,00
253,79;31,000
254,39;34,000
254,98;-10,0000
255,58;68,000
256,18;8,0000
256,77;130,00
257,37;42,000
257,96;-1,0000
258,56;47,000
259,15;179,00
259,75;14,000
260,34;23,000
260,94;42,000
261,53;116,00
262,13;30,000
262,73;-22,000
263,32;4,0000
263,92;69,000
264,51;127,00
265,11;-51,000
265,70;-37,000
266,30;-16,000
266,89;23,000
267,49;-82,000
268,08;-71,000
268,68;11,000
269,27;87,000
269,87;51,000
270,46;-30,000
271,06;18,000
271,65;-62,000
272,25;-3,0000
272,84;29,000
273,44;-27,000
274,03;31,000
274,62;17,000
275,22;-11,000
275,81;46,000
276,41;-48,000
277,00;-6,0000
277,60;-13,000
278,19;30,000
278,79;-67,000
279,38;82,000
279,98;29,000
280,57;111,00
281,16;-87,000
281,76;-49,000
282,35;-73,000
282,95;52,000
283,54;1,0000
284,14;-71,000
284,73;-55,000
285,32;19,000
285,92;-11,000
286,51;32,000
287,11;10,0000
287,70;18,000
288,29;46,000
288,89;13,000
289,48;-29,000
290,08;-41,000
290,67;-33,000
291,26;-54,000
291,86;14,000
292,45;59,000
293,04;37,000
293,64;-42,000
294,23;-33,000
294,83;-10,0000
295,42;131,00
296,01;32,000
296,61;107,00
297,20;82,000
297,79;23,000
298,39;-36,000
298,98;-29,000
299,57;56,000
300,17;61,000
300,76;78,000
301,35;50,000
301,95;31,000
302,54;32,000
303,13;-96,000
303,73;34,000
304,32;-61,000
304,91;-4,0000
305,51;98,000
306,10;31,000
306,69;100,000
307,28;11,000
307,88;-36,000
308,47;-36,000
309,06;70,000
309,66;22,000
310,25;60,000
310,84;-19,000
311,43;96,000
312,03;136,00
312,62;92,000
313,21;197,00
313,81;262,00
314,40;421,00
314,99;831,00
315,58;1171,0
316,18;1170,0
316,77;1103,0
317,36;992,00
317,95;913,00
318,54;859,00
319,14;527,00
319,73;93,000
320,32;112,00
320,91;51,000
321,51;-18,000
322,10;59,000
322,69;48,000
323,28;-21,000
323,87;-4,0000
324,47;21,000
325,06;83,000
325,65;100,000
326,24;82,000
326,83;50,000
327,43;58,000
328,02;138,00
328,61;96,000
329,20;165,00
329,79;96,000
330,39;233,00
330,98;203,00
331,57;118,00
332,16;87,000
332,75;203,00
333,34;361,00
333,93;311,00
334,53;355,00
335,12;870,00
335,71;2550,0
336,30;5755,0
336,89;8478,0
337,48;8684,0
338,07;8596,0
338,67;8408,0
339,26;7725,0
339,85;6452,0
340,44;4063,0
341,03;807,00
341,62;125,00
342,21;289,00
342,80;117,00
343,39;10,0000
343,99;86,000
344,58;136,00
345,17;-16,000
345,76;176,00
346,35;71,000
346,94;-19,000
347,53;46,000
348,12;59,000
348,71;210,00
349,30;239,00
349,89;381,00
350,48;360,00
351,07;370,00
351,66;599,00
352,26;1147,0
352,85;2426,0
353,44;3133,0
354,03;3175,0
354,62;3348,0
355,21;3609,0
355,80;4438,0
356,39;6391,0
356,98;10540
357,57;11732
358,16;11629
358,75;11402
359,34;10789
359,93;9866,0
360,52;7782,0
361,11;4166,0
361,70;750,00
362,29;219,00
362,88;204,00
363,47;196,00
364,06;116,00
364,65;219,00
365,24;140,00
365,83;167,00
366,42;315,00
367,01;238,00
367,60;337,00
368,19;333,00
368,78;209,00
369,37;436,00
369,95;670,00
370,54;1112,0
371,13;1087,0
371,72;1036,0
372,31;1212,0
372,90;1289,0
373,49;1536,0
374,08;2187,0
374,67;3133,0
375,26;4248,0
375,85;4276,0
376,44;4230,0
377,03;4216,0
377,61;3990,0
378,20;3464,0
378,79;3324,0
379,38;3611,0
379,97;6131,0
380,56;6407,0
381,15;6458,0
381,74;6148,0
382,33;5855,0
382,91;5169,0
383,50;3613,0
384,09;1294,0
384,68;297,00
385,27;211,00
385,86;260,00
386,45;238,00
387,03;244,00
387,62;281,00
388,21;165,00
388,80;317,00
389,39;333,00
389,98;356,00
390,57;379,00
391,15;318,00
391,74;382,00
392,33;467,00
392,92;457,00
393,51;855,00
394,09;883,00
394,68;976,00
395,27;748,00
395,86;900,00
396,45;842,00
397,03;909,00
397,62;729,00
398,21;999,00
398,80;1538,0
399,39;2307,0
399,97;2469,0
400,56;2477,0
401,15;2545,0
401,74;2354,0
402,32;2221,0
402,91;1508,0
403,50;982,00
404,09;886,00
404,67;1496,0
405,26;2622,0
405,85;2893,0
406,44;2861,0
407,02;2868,0
407,61;2756,0
408,20;2486,0
408,78;2054,0
409,37;1142,0
409,96;442,00
410,55;428,00
411,13;417,00
411,72;266,00
412,31;275,00
412,89;320,00
413,48;379,00
414,07;342,00
414,65;378,00
415,24;391,00
415,83;353,00
416,42;233,00
417,00;145,00
417,59;209,00
418,18;286,00
418,76;455,00
419,35;634,00
419,94;1040,0
420,52;809,00
421,11;810,00
421,69;767,00
422,28;771,00
422,87;527,00
423,45;514,00
424,04;316,00
424,63;369,00
425,21;513,00
425,80;703,00
426,38;1358,0
426,97;1560,0
427,56;1441,0
428,14;1307,0
428,73;1418,0
429,31;1191,0
429,90;1107,0
430,49;678,00
431,07;368,00
431,66;285,00
432,24;306,00
432,83;454,00
433,42;668,00
434,00;1068,0
434,59;993,00
435,17;947,00
435,76;1027,0
436,34;1043,0
436,93;939,00
437,51;603,00
438,10;368,00
438,69;80,000
439,27;95,000
439,86;93,000
440,44;115,00
441,03;147,00
441,61;122,00
442,20;253,00
442,78;101,00
443,37;2,0000
443,95;86,000
444,54;132,00
445,12;121,00
445,71;201,00
446,29;49,000
446,88;70,000
447,46;90,000
448,05;333,00
448,63;380,00
449,22;356,00
449,80;303,00
450,39;285,00
450,97;293,00
451,56;236,00
452,14;239,00
452,72;47,000
453,31;42,000
453,89;44,000
454,48;98,000
455,06;112,00
455,65;110,00
456,23;254,00
456,81;369,00
457,40;398,00
457,98;363,00
458,57;438,00
459,15;366,00
459,74;235,00
460,32;274,00
460,90;160,00
461,49;150,00
462,07;14,000
462,66;73,000
463,24;-8,0000
463,82;12,000
464,41;126,00
464,99;80,000
465,57;114,00
466,16;310,00
466,74;264,00
467,33;329,00
467,91;222,00
468,49;285,00
469,08;173,00
469,66;122,00
470,24;74,000
470,83;112,00
471,41;73,000
471,99;-6,0000
472,58;60,000
473,16;89,000
473,74;14,000
474,33;25,000
474,91;72,000
475,49;-4,0000
476,08;91,000
476,66;18,000
477,24;70,000
477,82;45,000
478,41;45,000
478,99;-71,000
479,57;31,000
480,16;123,00
480,74;174,00
481,32;117,00
481,90;65,000
482,49;163,00
483,07;107,00
483,65;31,000
484,23;119,00
484,82;43,000
485,40;114,00
485,98;46,000
486,56;60,000
487,15;151,00
487,73;127,00
488,31;36,000
488,89;-2,0000
489,47;23,000
490,06;66,000
490,64;137,00
491,22;108,00
491,80;176,00
492,39;153,00
492,97;84,000
493,55;10,0000
494,13;117,00
494,71;136,00
495,29;37,000
495,88;31,000
496,46;-75,000
497,04;12,000
497,62;90,000
498,20;-65,000
498,78;24,000
499,37;25,000
499,95;-71,000
500,53;-11,000
501,11;6,0000
501,69;43,000
502,27;87,000
502,85;65,000
503,44;89,000
504,02;104,00
504,60;101,00
505,18;63,000
505,76;-33,000
506,34;65,000
506,92;-48,000
507,50;-69,000
508,08;43,000
508,67;-16,000
509,25;48,000
509,83;16,000
510,41;38,000
510,99;80,000
511,57;-90,000
512,15;-27,000
512,73;6,0000
513,31;76,000
513,89;13,000
514,47;109,00
515,05;61,000
515,63;-9,0000
516,21;-59,000
516,79;45,000
517,38;94,000
517,96;-14,000
518,54;115,00
519,12;77,000
519,70;-10,0000
520,28;49,000
520,86;35,000
521,44;12,000
522,02;-46,000
522,60;48,000
523,18;-90,000
523,76;-14,000
524,34;6,0000
524,92;-59,000
525,50;10,0000
526,08;-85,000
526,66;60,000
527,24;8,0000
527,82;38,000
528,39;-91,000
528,97;91,000
529,55;-4,0000
530,13;-77,000
530,71;14,000
531,29;35,000
531,87;55,000
532,45;120,00
533,03;-21,000
533,61;-41,000
534,19;-106,00
534,77;-106,00
535,35;25,000
535,93;8,0000
536,51;42,000
537,08;6,0000
537,66;-61,000
538,24;-110,00
538,82;-17,000
539,40;55,000
539,98;-5,0000
540,56;101,00
541,14;32,000
541,72;118,00
542,29;13,000
542,87;-54,000
543,45;-78,000
544,03;-17,000
544,61;10,0000
545,19;-10,0000
545,77;2,0000
546,34;58,000
546,92;30,000
547,50;112,00
548,08;-5,0000
548,66;103,00
549,23;-4,0000
549,81;26,000
550,39;-3,0000
550,97;22,000
551,55;55,000
552,13;25,000
552,70;19,000
553,28;124,00
553,86;40,000
554,44;-32,000
555,01;43,000
555,59;38,000
556,17;82,000
556,75;-12,000
557,33;27,000
557,90;78,000
558,48;77,000
559,06;-30,000
559,64;60,000
560,21;177,00
560,79;-15,000
561,37;10,0000
561,95;39,000
562,52;79,000
563,10;12,000
563,68;64,000
564,25;12,000
564,83;4,0000
565,41;34,000
565,99;-43,000
566,56;53,000
567,14;-26,000
567,72;113,00
568,29;-82,000
568,87;-9,0000
569,45;108,00
570,02;65,000
570,60;71,000
571,18;-13,000
571,75;45,000
572,33;-2,0000
572,91;-33,000
573,48;-28,000
574,06;31,000
574,64;18,000
575,21;121,00
575,79;8,0000
576,37;54,000
576,94;141,00
577,52;43,000
578,09;138,00
578,67;171,00
579,25;41,000
579,82;47,000
580,40;153,00
580,97;249,00
581,55;91,000
582,13;10,0000
582,70;11,000
583,28;83,000
583,85;81,000
584,43;128,00
585,01;11,000
585,58;-9,0000
586,16;40,000
586,73;-58,000
587,31;30,000
587,88;99,000
588,46;50,000
589,03;-1,0000
589,61;150,00
590,18;89,000
590,76;43,000
591,34;-56,000
591,91;6,0000
592,49;91,000
593,06;54,000
593,64;225,00
594,21;45,000
594,79;74,000
595,36;31,000
595,94;35,000
596,51;72,000
597,09;12,000
597,66;70,000
598,24;24,000
598,81;11,000
599,38;95,000
599,96;111,00
600,53;46,000
601,11;73,000
601,68;67,000
602,26;49,000
602,83;18,000
603,41;-20,000
603,98;48,000
604,56;44,000
605,13;24,000
605,70;61,000
606,28;170,00
606,85;63,000
607,43;57,000
608,00;97,000
608,57;102,00
609,15;77,000
609,72;43,000
610,30;81,000
610,87;66,000
611,44;4,0000
612,02;24,000
612,59;58,000
613,16;86,000
613,74;-77,000
614,31;40,000
614,89;153,00
615,46;-11,000
616,03;3,0000
616,61;138,00
617,18;103,00
617,75;99,000
618,33;117,00
618,90;-77,000
619,47;93,000
620,05;33,000
620,62;70,000
621,19;-38,000
621,77;28,000
622,34;-14,000
622,91;0
623,48;-25,000
624,06;-12,000
624,63;-47,000
625,20;-28,000
625,78;33,000
626,35;-66,000
626,92;76,000
627,49;-5,0000
628,07;58,000
628,64;53,000
629,21;63,000
629,78;55,000
630,36;99,000
630,93;3,0000
631,50;20,000
632,07;75,000
632,65;-16,000
633,22;11,000
633,79;33,000
634,36;47,000
634,93;5,0000
635,51;5,0000
636,08;37,000
636,65;80,000
637,22;-35,000
637,79;34,000
638,37;64,000
638,94;111,00
639,51;56,000
640,08;137,00
640,65;162,00
641,22;26,000
641,80;39,000
642,37;50,000
642,94;-35,000
643,51;50,000
644,08;34,000
644,65;81,000
645,22;59,000
645,80;89,000
646,37;72,000
646,94;45,000
647,51;62,000
648,08;95,000
648,65;91,000
649,22;56,000
649,79;97,000
650,36;57,000
650,93;24,000
651,51;38,000
652,08;95,000
652,65;252,00
653,22;79,000
653,79;162,00
654,36;81,000
654,93;203,00
655,50;89,000
656,07;105,00
656,64;22,000
657,21;15,000
657,78;71,000
658,35;67,000
658,92;80,000
659,49;106,00
660,06;77,000
660,63;204,00
661,20;188,00
661,77;256,00
662,34;112,00
662,91;224,00
663,48;127,00
664,05;152,00
664,62;238,00
665,19;310,00
665,76;72,000
666,33;124,00
666,90;121,00
667,47;141,00
668,04;196,00
668,61;232,00
669,18;160,00
669,75;146,00
670,32;152,00
670,89;139,00
671,46;132,00
672,03;188,00
672,60;149,00
673,17;152,00
673,74;100,000
674,30;76,000
674,87;-29,000
675,44;140,00
676,01;105,00
676,58;78,000
677,15;112,00
677,72;126,00
678,29;15,000
678,86;119,00
679,42;60,000
679,99;69,000
680,56;182,00
681,13;-74,000
681,70;75,000
682,27;106,00
682,84;21,000
683,40;119,00
683,97;75,000
684,54;48,000
685,11;23,000
685,68;57,000
686,25;101,00
686,81;27,000
687,38;15,000
687,95;58,000
688,52;74,000
689,09;86,000
689,65;-51,000
690,22;84,000
690,79;9,0000
691,36;-5,0000
691,92;-21,000
692,49;70,000
693,06;50,000
693,63;30,000
694,20;71,000
694,76;-104,00
695,33;-42,000
695,90;115,00
696,47;-101,00
697,03;86,000
697,60;18,000
698,17;15,000
698,73;-13,000
699,30;-16,000
699,87;0
700,44;-5,0000
701,00;46,000
701,57;48,000
702,14;-20,000
702,70;3,0000
703,27;26,000
703,84;53,000
704,40;-3,0000
704,97;-20,000
705,54;-21,000
706,10;-59,000
706,67;47,000
707,24;-128,00
707,80;-6,0000
708,37;2,0000
708,94;43,000
709,50;-78,000
710,07;-32,000
710,64;-28,000
711,20;-3,0000
711,77;37,000
712,33;59,000
712,90;-106,00
713,47;58,000
714,03;73,000
714,60;-41,000
715,16;-9,0000
715,73;27,000
716,30;51,000
716,86;15,000
717,43;83,000
717,99;-76,000
718,56;79,000
719,12;33,000
719,69;-22,000
720,26;10,0000
720,82;47,000
721,39;-64,000
721,95;40,000
722,52;106,00
723,08;-36,000
723,65;-10,0000
724,21;20,000
724,78;12,000
725,34;121,00
725,91;119,00
726,47;169,00
727,04;92,000
727,60;-78,000
728,17;56,000
728,73;67,000
729,30;46,000
729,86;56,000
730,43;47,000
730,99;41,000
731,56;52,000
732,12;-50,000
732,68;-79,000
733,25;64,000
733,81;34,000
734,38;49,000
734,94;-25,000
735,51;16,000
736,07;98,000
736,63;153,00
737,20;86,000
737,76;109,00
738,33;141,00
738,89;65,000
739,46;141,00
740,02;79,000
740,58;30,000
741,15;127,00
741,71;93,000
742,27;110,00
742,84;54,000
743,40;-6,0000
743,97;64,000
744,53;50,000
745,09;69,000
745,66;96,000
746,22;64,000
746,78;168,00
747,35;44,000
747,91;95,000
748,47;192,00
749,04;166,00
749,60;101,00
750,16;14,000
750,72;132,00
751,29;142,00
751,85;78,000
752,41;193,00
752,98;64,000
753,54;54,000
754,10;52,000
754,66;5,0000
755,23;75,000
755,79;42,000
756,35;14,000
756,91;77,000
757,48;10,0000
758,04;34,000
758,60;176,00
759,16;109,00
759,73;4,0000
760,29;142,00
760,85;58,000
761,41;163,00
761,98;21,000
762,54;148,00
763,10;135,00
763,66;77,000
764,22;147,00
764,79;116,00
765,35;35,000
765,91;109,00
766,47;-17,000
767,03;79,000
767,59;34,000
768,16;6,0000
768,72;51,000
769,28;34,000
769,84;36,000
770,40;77,000
770,96;44,000
771,52;66,000
772,09;101,00
772,65;83,000
773,21;54,000
773,77;99,000
774,33;222,00
774,89;33,000
775,45;-3,0000
776,01;178,00
776,57;140,00
777,13;111,00
777,70;59,000
778,26;114,00
778,82;74,000
779,38;-10,0000
779,94;35,000
780,50;17,000
781,06;101,00
781,62;-10,0000
782,18;15,000
782,74;-100,000
783,30;-38,000
783,86;35,000
784,42;-7,0000
784,98;13,000
785,54;-24,000
786,10;-17,000
786,66;9,0000
787,22;-65,000
787,78;4,0000
788,34;90,000
788,90;53,000
789,46;-71,000
790,02;18,000
790,58;-64,000
791,14;10,0000
791,70;-5,0000
792,26;-16,000
792,82;-56,000
793,38;-27,000
793,94;113,00
794,50;111,00
795,06;15,000
795,62;-32,000
796,17;-7,0000
796,73;-52,000
797,29;-31,000
797,85;-59,000
798,41;-16,000
798,97;-7,0000
799,53;-34,000
800,09;27,000
800,65;12,000
801,21;1,0000
801,76;-2,0000
802,32;-17,000
802,88;70,000
803,44;-45,000
804,00;137,00
804,56;-11,000
805,12;-40,000
805,67;61,000
806,23;49,000
806,79;41,000
807,35;-78,000
807,91;12,000
808,46;-74,000
809,02;16,000
809,58;-78,000
810,14;54,000
810,70;47,000
811,26;13,000
811,81;-10,0000
812,37;34,000
812,93;-6,0000
813,49;-133,00
814,04;-13,000
814,60;-64,000
815,16;-26,000
815,72;21,000
816,27;-69,000
816,83;-93,000
817,39;-51,000
817,95;-40,000
818,50;4,0000
819,06;-77,000
819,62;-85,000
820,18;58,000
820,73;-4,0000
821,29;-78,000
821,85;-3,0000
822,40;90,000
822,96;-47,000
823,52;-39,000
824,07;-15,000
824,63;48,000
825,19;16,000
825,74;54,000
826,30;-5,0000
826,86;-35,000
827,41;6,0000
827,97;32,000
828,53;-71,000
829,08;50,000
829,64;40,000
830,20;49,000
830,75;-55,000
831,31;-6,0000
831,86;23,000
832,42;7,0000
832,98;24,000
833,53;23,000
834,09;-8,0000
834,64;-122,00
835,20;-71,000
835,76;74,000
836,31;14,000
836,87;-60,000
837,42;-2,0000
837,98;94,000
838,53;-3,0000
839,09;-34,000
839,64;21,000
840,20;-24,000
840,75;123,00
841,31;-13,000
841,87;15,000
842,42;154,00
842,98;101,00
843,53;46,000
844,09;-20,000
844,64;-8,0000
845,20;12,000
845,75;-4,0000
846,31;9,0000
846,86;34,000
847,41;103,00
847,97;28,000
848,52;-4,0000
849,08;-66,000
849,63;-103,00
850,19;-33,000
850,74;49,000
851,30;-22,000
851,85;86,000
852,41;26,000
852,96;46,000
853,51;13,000
854,07;-15,000
854,62;53,000
855,18;-14,000
855,73;12,000
856,28;25,000
856,84;-8,0000
857,39;-99,000
857,95;-68,000
858,50;-8,0000
859,05;-63,000
859,61;8,0000
860,16;39,000
860,71;57,000
861,27;-17,000
861,82;-88,000
862,37;-74,000
862,93;47,000
863,48;42,000
864,03;46,000
864,59;-36,000
865,14;122,00
865,69;62,000
866,25;126,00
866,80;33,000
867,35;67,000
867,90;93,000
868,46;69,000
869,01;-2,0000
869,56;52,000
870,12;31,000
870,67;-33,000
871,22;-50,000
871,77;6,0000
872,33;-12,000
872,88;101,00
873,43;38,000
873,98;40,000
874,54;113,00
875,09;-21,000
875,64;32,000
876,19;26,000
876,74;-37,000
877,30;22,000
877,85;-8,0000
878,40;-8,0000
878,95;9,0000
879,50;-75,000
880,06;8,0000
880,61;14,000
881,16;51,000
881,71;86,000
882,26;172,00
882,81;-15,000
883,37;-2,0000
883,92;-13,000
884,47;18,000
885,02;2,0000
885,57;54,000
886,12;66,000
886,67;-8,0000
887,22;35,000
887,78;-11,000
888,33;9,0000
888,88;173,00
889,43;44,000
889,98;37,000
890,53;-36,000
891,08;46,000
891,63;64,000
892,18;11,000
892,73;142,00
893,28;22,000
893,83;-22,000
894,38;-3,0000
894,93;-24,000
895,48;-4,0000
896,03;-45,000
896,59;-23,000
897,14;-18,000
897,69;123,00
898,24;-31,000
898,79;23,000
899,34;-41,000
899,89;61,000
900,44;16,000
900,99;96,000
901,53;-35,000
902,08;-40,000
902,63;22,000
903,18;25,000
903,73;0
904,28;26,000
904,83;-71,000
905,38;53,000
905,93;26,000
906,48;-30,000
907,03;-49,000
907,58;-56,000
908,13;0
908,68;36,000
909,23;66,000
909,78;4,0000
910,32;-10,0000
910,87;24,000
911,42;76,000
911,97;11,000
912,52;49,000
913,07;-85,000
913,62;-1,0000
914,17;24,000
914,71;21,000
915,26;144,00
915,81;56,000
916,36;-185,00
916,91;-31,000
917,46;-38,000
918,00;13,000
918,55;-3,0000
919,10;17,000
919,65;-42,000
920,20;13,000
920,74;55,000
921,29;-23,000
921,84;-52,000
922,39;23,000
922,94;50,000
923,48;5,0000
924,03;-11,000
924,58;-113,00
925,13;75,000
925,67;5,0000
926,22;18,000
926,77;-86,000
927,32;9,0000
927,86;24,000
928,41;24,000
928,96;-37,000
929,50;-120,00
930,05;-60,000
930,60;-4,0000
931,15;-4,0000
931,69;-108,00
932,24;-44,000
932,79;111,00
933,33;-1,0000
933,88;-21,000
934,43;56,000
934,97;-9,0000
935,52;-34,000
936,07;-50,000
936,61;-103,00
937,16;-31,000
937,71;-3,0000
938,25;91,000
938,80;-16,000
939,34;-59,000
939,89;-78,000
940,44;30,000
940,98;-17,000
941,53;85,000
942,07;52,000
942,62;-3,0000
943,17;-13,000
943,71;-31,000
944,26;25,000
944,80;68,000
945,35;-30,000
945,89;0
946,44;14,000
946,99;26,000
947,53;55,000
948,08;-31,000
948,62;-32,000
949,17;62,000
949,71;32,000
950,26;-20,000
950,80;33,000
951,35;-34,000
951,89;42,000
952,44;3,0000
952,98;17,000
953,53;-25,000
954,07;40,000
954,62;-37,000
955,16;-40,000
955,71;-4,0000
956,25;-23,000
956,79;7,0000
957,34;7,0000
957,88;-56,000
958,43;66,000
958,97;-47,000
959,52;-108,00
960,06;-7,0000
960,60;134,00
961,15;-6,0000
961,69;-8,0000
962,24;-59,000
962,78;-16,000
963,32;15,000
963,87;-48,000
964,41;20,000
964,96;-13,000
965,50;-53,000
966,04;49,000
966,59;11,000
967,13;11,000
967,67;-134,00
968,22;-75,000
968,76;67,000
969,30;46,000
969,85;109,00
970,39;-24,000
970,93;53,000
971,47;117,00
972,02;69,000
972,56;-22,000
973,10;105,00
973,65;52,000
974,19;98,000
974,73;-23,000
975,27;-125,00
975,82;5,0000
976,36;-108,00
976,90;-17,000
977,44;61,000
977,99;13,000
978,53;-55,000
979,07;32,000
979,61;109,00
980,16;175,00
980,70;-65,000
981,24;-38,000
981,78;32,000
982,32;-88,000
982,87;17,000
983,41;-18,000
983,95;97,000
984,49;-14,000
985,03;94,000
985,57;-32,000
986,12;9,0000
986,66;-86,000
987,20;12,000
987,74;-63,000
988,28;-89,000
988,82;34,000
989,36;35,000
989,91;-20,000
990,45;-48,000
990,99;-26,000
991,53;23,000
992,07;29,000
992,61;-48,000
993,15;41,000
993,69;0
994,23;38,000
994,77;62,000
995,31;34,000
995,86;-115,00
996,40;-47,000
996,94;-46,000
997,48;77,000
998,02;-8,0000
998,56;0
999,10;-55,000
999,64;-21,000
1000,18;-63,000
1000,72;34,000
1001,26;100,000
1001,80;-32,000
1002,34;42,000
1002,88;-22,000
1003,42;12,000
1003,96;24,000
1004,50;-14,000
1005,04;-10,0000
1005,58;19,000
1006,12;22,000
1006,66;53,000
1007,20;-12,000
1007,73;-63,000
1008,27;58,000
1008,81;147,00
1009,35;82,000
1009,89;-48,000
1010,43;25,000
1010,97;58,000
1011,51;18,000
1012,05;99,000
1012,59;76,000
1013,13;41,000
1013,66;161,00
1014,20;9,0000
1014,74;-28,000
1015,28;-49,000
1015,82;10,0000
1016,36;-119,00
1016,90;43,000
1017,43;-3,0000
1017,97;34,000
1018,51;55,000
1019,05;-22,000
1019,59;5,0000
1020,13;-13,000
1020,66;-54,000
1021,20;-100,000
1021,74;-5,0000
1022,28;-82,000
1022,81;20,000
1023,35;45,000
1023,89;-41,000
1024,43;-33,000
1024,97;42,000
1025,50;-38,000
1026,04;14,000
1026,58;-31,000
1027,12;25,000
1027,65;57,000
1028,19;12,000
1028,73;-44,000
1029,26;-16,000
1029,80;85,000
1030,34;12,000
1030,88;40,000
1031,41;-20,000
1031,95;-27,000
1032,49;1,0000
1033,02;-105,00
1033,56;-153,00
1034,10;-44,000
1034,63;-31,000
1035,17;89,000
1035,71;-39,000
1036,24;-42,000
1036,78;116,00
1037,32;-12,000
1037,85;25,000
1038,39;-20,000
1038,92;117,00
1039,46;-14,000
1040,00;-144,00
1040,53;11,000
1041,07;-33,000
1041,60;-20,000
1042,14;36,000
1042,68;-102,00
1043,21;35,000
1043,75;-95,000
1044,28;-8,0000
1044,82;-47,000
1045,35;-50,000
1045,89;31,000
1046,42;-100,000
1046,96;-35,000
1047,49;-5,0000
1048,03;-26,000
1048,57;27,000
1049,10;66,000
1049,64;58,000
1050,17;-49,000
1050,70;28,000
1051,24;16,000
1051,77;-19,000
1052,31;110,00
1052,84;-15,000
1053,38;130,00
1053,91;3,0000
1054,45;-36,000
1054,98;11,000
1055,52;-15,000
1056,05;-24,000
1056,59;-63,000
1057,12;-25,000
1057,65;35,000
1058,19;0
1058,72;82,000
1059,26;-45,000
1059,79;9,0000
1060,32;-8,0000
1060,86;1,0000
1061,39;-17,000
1061,93;-27,000
1062,46;106,00
1062,99;-105,00
1063,53;-47,000
1064,06;30,000
1064,59;-115,00
1065,13;-8,0000
1065,66;-65,000
1066,19;2,0000
1066,73;38,000
1067,26;-50,000
1067,79;-16,000
1068,33;-15,000
1068,86;-37,000
1069,39;-114,00
1069,92;80,000
1070,46;-81,000
1070,99;-23,000
1071,52;-3,0000
1072,05;48,000
1072,59;63,000
1073,12;-35,000
1073,65;-32,000
1074,18;96,000
1074,72;-27,000
1075,25;-28,000
1075,78;-13,000
1076,31;-24,000
1076,85;86,000
1077,38;53,000
1077,91;-44,000
1078,44;15,000
1078,97;32,000
1079,51;22,000
1080,04;-96,000
1080,57;-30,000
1081,10;-11,000
1081,63;-52,000
1082,16;-42,000
1082,70;-22,000
1083,23;-1,0000
1083,76;-49,000
1084,29;-40,000
1084,82;3,0000
1085,35;42,000
1085,88;-42,000
1086,41;32,000
1086,94;17,000
1087,48;-38,000
1088,01;-39,000
1088,54;-53,000
1089,07;48,000
1089,60;-61,000
1090,13;-51,000
1090,66;-79,000
1091,19;66,000
1091,72;-21,000
1092,25;-94,000
1092,78;-6,0000
1093,31;-7,0000
1093,84;47,000
1094,37;-19,000
1094,90;92,000
1095,43;-120,00
1095,96;53,000
1096,49;0
1097,02;52,000
1097,55;25,000
1098,08;-66,000
1098,61;-7,0000
1099,14;-30,000
1099,67;23,000
1100,20;4,0000
