M- 33 del, 3
Integration time: 5000 ms
Average: 1 scans
Nr of pixels used for smoothing: 0
Data measured with spectrometer serial number: 0604021S1
Wave   ;Sample
[nm]   ;[counts]
173,70;-71,000
174,30;41,000
174,90;-62,000
175,50;-41,000
176,10;-75,000
176,70;143,00
177,30;72,000
177,90;-35,000
178,50;-73,000
179,10;26,000
179,70;22,000
180,30;91,000
180,89;-14,000
181,49;84,000
182,09;34,000
182,69;-6,0000
183,29;80,000
183,89;30,000
184,49;0
185,09;20,000
185,69;-1,0000
186,29;73,000
186,89;-88,000
187,48;-29,000
188,08;-4,0000
188,68;113,00
189,28;49,000
189,88;50,000
190,48;-2,0000
191,08;65,000
191,68;50,000
192,28;63,000
192,87;18,000
193,47;33,000
194,07;41,000
194,67;31,000
195,27;17,000
195,87;-65,000
196,47;19,000
197,06;101,00
197,66;-37,000
198,26;115,00
198,86;-26,000
199,46;28,000
200,06;23,000
200,66;-32,000
201,25;46,000
201,85;28,000
202,45;-97,000
203,05;83,000
203,65;178,00
204,24;7,0000
204,84;51,000
205,44;43,000
206,04;35,000
206,64;65,000
207,24;23,000
207,83;-123,00
208,43;-47,000
209,03;54,000
209,63;130,00
210,22;-7,0000
210,82;63,000
211,42;70,000
212,02;16,000
212,62;18,000
213,21;-66,000
213,81;-17,000
214,41;-11,000
215,01;-107,00
215,60;-31,000
216,20;-45,000
216,80;-27,000
217,40;11,000
218,00;99,000
218,59;5,0000
219,19;46,000
219,79;-63,000
220,38;19,000
220,98;113,00
221,58;18,000
222,18;5,0000
222,77;49,000
223,37;-16,000
223,97;-45,000
224,57;-15,000
225,16;52,000
225,76;34,000
226,36;-27,000
226,95;-44,000
227,55;2,0000
228,15;31,000
228,75;85,000
229,34;14,000
229,94;-10,0000
230,54;18,000
231,13;10,0000
231,73;53,000
232,33;16,000
232,92;122,00
233,52;-8,0000
234,12;2,0000
234,71;-23,000
235,31;-22,000
235,91;-80,000
236,50;20,000
237,10;31,000
237,70;74,000
238,29;12,000
238,89;7,0000
239,49;-32,000
240,08;14,000
240,68;18,000
241,28;44,000
241,87;108,00
242,47;-35,000
243,06;11,000
243,66;139,00
244,26;-32,000
244,85;63,000
245,45;-7,0000
246,05;-83,000
246,64;9,0000
247,24;-67,000
247,83;33,000
248,43;-34,000
249,03;29,000
249,62;9,0000
250,22;54,000
250,81;-21,000
251,41;-26,000
252,01;60,000
252,60;24,000
253,20;149,00
253,79;30,000
254,39;140,00
254,98;-12,000
255,58;1,0000
256,18;75,000
256,77;83,000
257,37;12,000
257,96;-32,000
258,56;-8,0000
259,15;100,000
259,75;79,000
260,34;-47,000
260,94;41,000
261,53;47,000
262,13;-42,000
262,73;-10,0000
263,32;2,0000
263,92;86,000
264,51;109,00
265,11;21,000
265,70;49,000
266,30;30,000
266,89;52,000
267,49;-30,000
268,08;-73,000
268,68;10,0000
269,27;9,0000
269,87;91,000
270,46;84,000
271,06;43,000
271,65;22,000
272,25;-28,000
272,84;-12,000
273,44;-31,000
274,03;49,000
274,62;-21,000
275,22;34,000
275,81;98,000
276,41;6,0000
277,00;-2,0000
277,60;123,00
278,19;41,000
278,79;-10,0000
279,38;21,000
279,98;22,000
280,57;49,000
281,16;-113,00
281,76;-35,000
282,35;-28,000
282,95;30,000
283,54;-61,000
284,14;-17,000
284,73;-57,000
285,32;-6,0000
285,92;0
286,51;-15,000
287,11;21,000
287,70;76,000
288,29;9,0000
288,89;111,00
289,48;-38,000
290,08;29,000
290,67;-26,000
291,26;11,000
291,86;20,000
292,45;71,000
293,04;64,000
293,64;-98,000
294,23;-45,000
294,83;-37,000
295,42;56,000
296,01;-25,000
296,61;149,00
297,20;37,000
297,79;12,000
298,39;6,0000
298,98;-41,000
299,57;42,000
300,17;9,0000
300,76;31,000
301,35;-2,0000
301,95;93,000
302,54;6,0000
303,13;-87,000
303,73;20,000
304,32;18,000
304,91;27,000
305,51;56,000
306,10;-35,000
306,69;83,000
307,28;57,000
307,88;-27,000
308,47;24,000
309,06;67,000
309,66;-52,000
310,25;35,000
310,84;-25,000
311,43;15,000
312,03;-14,000
312,62;67,000
313,21;104,00
313,81;180,00
314,40;169,00
314,99;360,00
315,58;531,00
316,18;535,00
316,77;556,00
317,36;481,00
317,95;358,00
318,54;467,00
319,14;200,00
319,73;81,000
320,32;91,000
320,91;91,000
321,51;42,000
322,10;38,000
322,69;96,000
323,28;-27,000
323,87;22,000
324,47;-9,0000
325,06;-41,000
325,65;45,000
326,24;34,000
326,83;47,000
327,43;9,0000
328,02;62,000
328,61;85,000
329,20;78,000
329,79;-2,0000
330,39;97,000
330,98;183,00
331,57;43,000
332,16;107,00
332,75;119,00
333,34;177,00
333,93;63,000
334,53;149,00
335,12;444,00
335,71;1196,0
336,30;2520,0
336,89;3970,0
337,48;3975,0
338,07;3735,0
338,67;3685,0
339,26;3537,0
339,85;2933,0
340,44;1782,0
341,03;272,00
341,62;68,000
342,21;119,00
342,80;66,000
343,39;44,000
343,99;76,000
344,58;11,000
345,17;-79,000
345,76;60,000
346,35;40,000
346,94;-14,000
347,53;97,000
348,12;76,000
348,71;50,000
349,30;126,00
349,89;285,00
350,48;175,00
351,07;159,00
351,66;286,00
352,26;803,00
352,85;1084,0
353,44;1348,0
354,03;1399,0
354,62;1388,0
355,21;1553,0
355,80;1839,0
356,39;2872,0
356,98;4941,0
357,57;5392,0
358,16;5456,0
358,75;5304,0
359,34;5036,0
359,93;4432,0
360,52;3636,0
361,11;1942,0
361,70;364,00
362,29;125,00
362,88;162,00
363,47;38,000
364,06;43,000
364,65;89,000
365,24;62,000
365,83;73,000
366,42;117,00
367,01;49,000
367,60;226,00
368,19;82,000
368,78;123,00
369,37;197,00
369,95;196,00
370,54;375,00
371,13;446,00
371,72;469,00
372,31;563,00
372,90;524,00
373,49;685,00
374,08;961,00
374,67;1450,0
375,26;1842,0
375,85;1897,0
376,44;1927,0
377,03;1815,0
377,61;1753,0
378,20;1489,0
378,79;1589,0
379,38;1656,0
379,97;2784,0
380,56;2980,0
381,15;2972,0
381,74;2810,0
382,33;2676,0
382,91;2376,0
383,50;1613,0
384,09;620,00
384,68;107,00
385,27;54,000
385,86;182,00
386,45;176,00
387,03;91,000
387,62;112,00
388,21;76,000
388,80;84,000
389,39;214,00
389,98;209,00
390,57;136,00
391,15;170,00
391,74;174,00
392,33;195,00
392,92;210,00
393,51;354,00
394,09;379,00
394,68;474,00
395,27;342,00
395,86;400,00
396,45;400,00
397,03;514,00
397,62;298,00
398,21;437,00
398,80;658,00
399,39;1047,0
399,97;1035,0
400,56;1238,0
401,15;1111,0
401,74;1046,0
402,32;895,00
402,91;688,00
403,50;438,00
404,09;426,00
404,67;635,00
405,26;1265,0
405,85;1219,0
406,44;1323,0
407,02;1224,0
407,61;1271,0
408,20;1162,0
408,78;961,00
409,37;343,00
409,96;231,00
410,55;166,00
411,13;254,00
411,72;193,00
412,31;34,000
412,89;172,00
413,48;112,00
414,07;234,00
414,65;124,00
415,24;141,00
415,83;122,00
416,42;50,000
417,00;45,000
417,59;147,00
418,18;114,00
418,76;166,00
419,35;189,00
419,94;410,00
420,52;410,00
421,11;374,00
421,69;276,00
422,28;360,00
422,87;319,00
423,45;281,00
424,04;143,00
424,63;155,00
425,21;176,00
425,80;344,00
426,38;629,00
426,97;649,00
427,56;536,00
428,14;588,00
428,73;601,00
429,31;644,00
429,90;448,00
430,49;346,00
431,07;96,000
431,66;188,00
432,24;231,00
432,83;248,00
433,42;303,00
434,00;372,00
434,59;492,00
435,17;435,00
435,76;354,00
436,34;472,00
436,93;556,00
437,51;273,00
438,10;246,00
438,69;-18,000
439,27;-20,000
439,86;68,000
440,44;100,000
441,03;59,000
441,61;118,00
442,20;137,00
442,78;33,000
443,37;-36,000
443,95;79,000
444,54;115,00
445,12;100,000
445,71;47,000
446,29;75,000
446,88;52,000
447,46;77,000
448,05;194,00
448,63;231,00
449,22;167,00
449,80;139,00
450,39;114,00
450,97;132,00
451,56;86,000
452,14;164,00
452,72;31,000
453,31;4,0000
453,89;24,000
454,48;61,000
455,06;36,000
455,65;131,00
456,23;104,00
456,81;113,00
457,40;259,00
457,98;183,00
458,57;180,00
459,15;97,000
459,74;251,00
460,32;125,00
460,90;171,00
461,49;99,000
462,07;-54,000
462,66;101,00
463,24;19,000
463,82;37,000
464,41;32,000
464,99;41,000
465,57;-34,000
466,16;111,00
466,74;32,000
467,33;142,00
467,91;115,00
468,49;175,00
469,08;84,000
469,66;19,000
470,24;48,000
470,83;127,00
471,41;54,000
471,99;-21,000
472,58;39,000
473,16;82,000
473,74;31,000
474,33;43,000
474,91;58,000
475,49;1,0000
476,08;128,00
476,66;-25,000
477,24;13,000
477,82;3,0000
478,41;11,000
478,99;-16,000
479,57;38,000
480,16;92,000
480,74;146,00
481,32;74,000
481,90;103,00
482,49;185,00
483,07;69,000
483,65;82,000
484,23;-8,0000
484,82;11,000
485,40;20,000
485,98;75,000
486,56;39,000
487,15;30,000
487,73;123,00
488,31;0
488,89;-19,000
489,47;-11,000
490,06;-59,000
490,64;21,000
491,22;110,00
491,80;32,000
492,39;88,000
492,97;-19,000
493,55;90,000
494,13;133,00
494,71;51,000
495,29;63,000
495,88;-87,000
496,46;-3,0000
497,04;22,000
497,62;123,00
498,20;51,000
498,78;100,000
499,37;16,000
499,95;-92,000
500,53;-35,000
501,11;17,000
501,69;136,00
502,27;34,000
502,85;46,000
503,44;148,00
504,02;122,00
504,60;6,0000
505,18;8,0000
505,76;-24,000
506,34;44,000
506,92;-32,000
507,50;-65,000
508,08;24,000
508,67;-18,000
509,25;63,000
509,83;25,000
510,41;12,000
510,99;34,000
511,57;-107,00
512,15;-29,000
512,73;58,000
513,31;94,000
513,89;45,000
514,47;32,000
515,05;-9,0000
515,63;22,000
516,21;-29,000
516,79;3,0000
517,38;7,0000
517,96;-6,0000
518,54;7,0000
519,12;49,000
519,70;131,00
520,28;18,000
520,86;23,000
521,44;-64,000
522,02;6,0000
522,60;71,000
523,18;-55,000
523,76;-34,000
524,34;-21,000
524,92;25,000
525,50;25,000
526,08;-113,00
526,66;50,000
527,24;-100,000
527,82;45,000
528,39;-26,000
528,97;149,00
529,55;34,000
530,13;30,000
530,71;123,00
531,29;43,000
531,87;108,00
532,45;38,000
533,03;-89,000
533,61;-60,000
534,19;-35,000
534,77;3,0000
535,35;-16,000
535,93;-46,000
536,51;79,000
537,08;298,00
537,66;-56,000
538,24;-18,000
538,82;54,000
539,40;30,000
539,98;11,000
540,56;44,000
541,14;16,000
541,72;74,000
542,29;-63,000
542,87;-31,000
543,45;-40,000
544,03;-87,000
544,61;-88,000
545,19;16,000
545,77;-47,000
546,34;8,0000
546,92;-25,000
547,50;69,000
548,08;-9,0000
548,66;56,000
549,23;95,000
549,81;-2,0000
550,39;47,000
550,97;35,000
551,55;48,000
552,13;86,000
552,70;81,000
553,28;87,000
553,86;119,00
554,44;-17,000
555,01;30,000
555,59;116,00
556,17;59,000
556,75;42,000
557,33;62,000
557,90;134,00
558,48;39,000
559,06;11,000
559,64;31,000
560,21;71,000
560,79;78,000
561,37;73,000
561,95;55,000
562,52;76,000
563,10;-5,0000
563,68;58,000
564,25;69,000
564,83;7,0000
565,41;-22,000
565,99;-43,000
566,56;31,000
567,14;89,000
567,72;61,000
568,29;-125,00
568,87;-46,000
569,45;9,0000
570,02;52,000
570,60;59,000
571,18;61,000
571,75;47,000
572,33;-55,000
572,91;-16,000
573,48;22,000
574,06;4,0000
574,64;113,00
575,21;55,000
575,79;-30,000
576,37;63,000
576,94;110,00
577,52;-31,000
578,09;97,000
578,67;73,000
579,25;85,000
579,82;-35,000
580,40;81,000
580,97;151,00
581,55;110,00
582,13;26,000
582,70;-24,000
583,28;26,000
583,85;28,000
584,43;38,000
585,01;-11,000
585,58;155,00
586,16;12,000
586,73;-23,000
587,31;29,000
587,88;-4,0000
588,46;44,000
589,03;-25,000
589,61;94,000
590,18;24,000
590,76;-15,000
591,34;-110,00
591,91;-14,000
592,49;33,000
593,06;61,000
593,64;158,00
594,21;-17,000
594,79;89,000
595,36;8,0000
595,94;-40,000
596,51;90,000
597,09;-4,0000
597,66;31,000
598,24;20,000
598,81;-111,00
599,38;133,00
599,96;41,000
600,53;-45,000
601,11;38,000
601,68;-34,000
602,26;56,000
602,83;15,000
603,41;-25,000
603,98;75,000
604,56;2,0000
605,13;-52,000
605,70;51,000
606,28;85,000
606,85;83,000
607,43;-12,000
608,00;106,00
608,57;41,000
609,15;103,00
609,72;54,000
610,30;51,000
610,87;-27,000
611,44;99,000
612,02;128,00
612,59;71,000
613,16;166,00
613,74;-8,0000
614,31;35,000
614,89;309,00
615,46;-35,000
616,03;14,000
616,61;-2,0000
617,18;115,00
617,75;87,000
618,33;77,000
618,90;62,000
619,47;108,00
620,05;66,000
620,62;80,000
621,19;-7,0000
621,77;-18,000
622,34;0
622,91;58,000
623,48;-39,000
624,06;11,000
624,63;-7,0000
625,20;19,000
625,78;101,00
626,35;-16,000
626,92;42,000
627,49;64,000
628,07;42,000
628,64;15,000
629,21;38,000
629,78;130,00
630,36;81,000
630,93;37,000
631,50;58,000
632,07;115,00
632,65;44,000
633,22;29,000
633,79;-21,000
634,36;25,000
634,93;-27,000
635,51;-52,000
636,08;46,000
636,65;125,00
637,22;-102,00
637,79;-66,000
638,37;76,000
638,94;40,000
639,51;48,000
640,08;114,00
640,65;186,00
641,22;-30,000
641,80;-96,000
642,37;27,000
642,94;-44,000
643,51;-2,0000
644,08;18,000
644,65;-12,000
645,22;58,000
645,80;19,000
646,37;0
646,94;-15,000
647,51;32,000
648,08;33,000
648,65;136,00
649,22;-40,000
649,79;46,000
650,36;53,000
650,93;66,000
651,51;72,000
652,08;-39,000
652,65;55,000
653,22;-3,0000
653,79;41,000
654,36;76,000
654,93;124,00
655,50;-63,000
656,07;111,00
656,64;-16,000
657,21;23,000
657,78;125,00
658,35;37,000
658,92;52,000
659,49;-9,0000
660,06;40,000
660,63;96,000
661,20;129,00
661,77;115,00
662,34;74,000
662,91;76,000
663,48;56,000
664,05;111,00
664,62;97,000
665,19;132,00
665,76;16,000
666,33;150,00
666,90;58,000
667,47;142,00
668,04;154,00
668,61;137,00
669,18;24,000
669,75;66,000
670,32;101,00
670,89;153,00
671,46;47,000
672,03;39,000
672,60;32,000
673,17;21,000
673,74;26,000
674,30;-31,000
674,87;-71,000
675,44;28,000
676,01;67,000
676,58;31,000
677,15;114,00
677,72;126,00
678,29;63,000
678,86;39,000
679,42;148,00
679,99;-7,0000
680,56;80,000
681,13;-16,000
681,70;137,00
682,27;-4,0000
682,84;18,000
683,40;73,000
683,97;-42,000
684,54;-26,000
685,11;58,000
685,68;-21,000
686,25;52,000
686,81;80,000
687,38;-34,000
687,95;165,00
688,52;57,000
689,09;16,000
689,65;-26,000
690,22;15,000
690,79;-39,000
691,36;-58,000
691,92;-20,000
692,49;33,000
693,06;-3,0000
693,63;-7,0000
694,20;89,000
694,76;-77,000
695,33;-7,0000
695,90;-22,000
696,47;-46,000
697,03;66,000
697,60;-50,000
698,17;30,000
698,73;-50,000
699,30;-50,000
699,87;22,000
700,44;33,000
701,00;105,00
701,57;21,000
702,14;-22,000
702,70;34,000
703,27;49,000
703,84;12,000
704,40;18,000
704,97;1,0000
705,54;-12,000
706,10;14,000
706,67;12,000
707,24;-290,00
707,80;67,000
708,37;9,0000
708,94;36,000
709,50;24,000
710,07;5,0000
710,64;-6,0000
711,20;-57,000
711,77;8,0000
712,33;56,000
712,90;78,000
713,47;54,000
714,03;80,000
714,60;59,000
715,16;16,000
715,73;-35,000
716,30;-6,0000
716,86;38,000
717,43;53,000
717,99;-21,000
718,56;276,00
719,12;18,000
719,69;44,000
720,26;-108,00
720,82;52,000
721,39;9,0000
721,95;24,000
722,52;85,000
723,08;52,000
723,65;44,000
724,21;109,00
724,78;34,000
725,34;84,000
725,91;117,00
726,47;121,00
727,04;33,000
727,60;-22,000
728,17;68,000
728,73;35,000
729,30;155,00
729,86;17,000
730,43;48,000
730,99;58,000
731,56;60,000
732,12;-79,000
732,68;-44,000
733,25;-29,000
733,81;45,000
734,38;27,000
734,94;-3,0000
735,51;-96,000
736,07;3,0000
736,63;87,000
737,20;102,00
737,76;53,000
738,33;74,000
738,89;27,000
739,46;62,000
740,02;32,000
740,58;41,000
741,15;193,00
741,71;29,000
742,27;35,000
742,84;22,000
743,40;77,000
743,97;72,000
744,53;22,000
745,09;99,000
745,66;25,000
746,22;19,000
746,78;36,000
747,35;20,000
747,91;73,000
748,47;88,000
749,04;52,000
749,60;-38,000
750,16;124,00
750,72;39,000
751,29;168,00
751,85;28,000
752,41;118,00
752,98;15,000
753,54;-12,000
754,10;-26,000
754,66;-20,000
755,23;38,000
755,79;1,0000
756,35;-61,000
756,91;43,000
757,48;-11,000
758,04;-17,000
758,60;102,00
759,16;72,000
759,73;108,00
760,29;154,00
760,85;-64,000
761,41;190,00
761,98;-71,000
762,54;156,00
763,10;65,000
763,66;79,000
764,22;162,00
764,79;75,000
765,35;1,0000
765,91;58,000
766,47;-32,000
767,03;6,0000
767,59;4,0000
768,16;-54,000
768,72;121,00
769,28;45,000
769,84;18,000
770,40;63,000
770,96;-34,000
771,52;-6,0000
772,09;109,00
772,65;15,000
773,21;52,000
773,77;81,000
774,33;108,00
774,89;114,00
775,45;12,000
776,01;31,000
776,57;95,000
777,13;32,000
777,70;3,0000
778,26;63,000
778,82;-11,000
779,38;62,000
779,94;38,000
780,50;64,000
781,06;87,000
781,62;28,000
782,18;-56,000
782,74;-48,000
783,30;-90,000
783,86;60,000
784,42;70,000
784,98;-26,000
785,54;-74,000
786,10;3,0000
786,66;-20,000
787,22;20,000
787,78;-41,000
788,34;79,000
788,90;51,000
789,46;-25,000
790,02;-56,000
790,58;-40,000
791,14;-18,000
791,70;60,000
792,26;34,000
792,82;-57,000
793,38;321,00
793,94;67,000
794,50;82,000
795,06;78,000
795,62;19,000
796,17;15,000
796,73;-37,000
797,29;30,000
797,85;-2,0000
798,41;-50,000
798,97;-59,000
799,53;34,000
800,09;63,000
800,65;-39,000
801,21;26,000
801,76;-13,000
802,32;-17,000
802,88;19,000
803,44;-46,000
804,00;82,000
804,56;12,000
805,12;35,000
805,67;20,000
806,23;20,000
806,79;37,000
807,35;-26,000
807,91;-69,000
808,46;-70,000
809,02;1,0000
809,58;-60,000
810,14;-10,0000
810,70;-10,0000
811,26;62,000
811,81;-17,000
812,37;127,00
812,93;65,000
813,49;-74,000
814,04;58,000
814,60;48,000
815,16;-18,000
815,72;19,000
816,27;-30,000
816,83;-67,000
817,39;-5,0000
817,95;92,000
818,50;67,000
819,06;-132,00
819,62;-99,000
820,18;92,000
820,73;2,0000
821,29;-3,0000
821,85;-38,000
822,40;-22,000
822,96;57,000
823,52;0
824,07;-211,00
824,63;43,000
825,19;-26,000
825,74;58,000
826,30;-49,000
826,86;13,000
827,41;-28,000
827,97;18,000
828,53;-35,000
829,08;63,000
829,64;55,000
830,20;80,000
830,75;-82,000
831,31;37,000
831,86;25,000
832,42;98,000
832,98;-59,000
833,53;-1,0000
834,09;1,0000
834,64;-54,000
835,20;-58,000
835,76;48,000
836,31;12,000
836,87;-37,000
837,42;41,000
837,98;93,000
838,53;-3,0000
839,09;46,000
839,64;42,000
840,20;-61,000
840,75;73,000
841,31;-27,000
841,87;0
842,42;191,00
842,98;107,00
843,53;20,000
844,09;76,000
844,64;42,000
845,20;133,00
845,75;30,000
846,31;43,000
846,86;51,000
847,41;29,000
847,97;15,000
848,52;61,000
849,08;-39,000
849,63;12,000
850,19;-92,000
850,74;79,000
851,30;54,000
851,85;33,000
852,41;34,000
852,96;99,000
853,51;-22,000
854,07;30,000
854,62;49,000
855,18;36,000
855,73;-5,0000
856,28;-2,0000
856,84;59,000
857,39;-127,00
857,95;1,0000
858,50;-51,000
859,05;37,000
859,61;-28,000
860,16;24,000
860,71;55,000
861,27;68,000
861,82;-41,000
862,37;-90,000
862,93;34,000
863,48;25,000
864,03;-21,000
864,59;-12,000
865,14;59,000
865,69;54,000
866,25;11,000
866,80;89,000
867,35;96,000
867,90;-14,000
868,46;69,000
869,01;35,000
869,56;109,00
870,12;53,000
870,67;7,0000
871,22;46,000
871,77;52,000
872,33;-55,000
872,88;135,00
873,43;-51,000
873,98;48,000
874,54;69,000
875,09;15,000
875,64;-10,0000
876,19;76,000
876,74;42,000
877,30;35,000
877,85;-12,000
878,40;-1,0000
878,95;21,000
879,50;-22,000
880,06;48,000
880,61;70,000
881,16;69,000
881,71;16,000
882,26;66,000
882,81;-72,000
883,37;19,000
883,92;-21,000
884,47;41,000
885,02;111,00
885,57;67,000
886,12;11,000
886,67;-10,0000
887,22;33,000
887,78;-10,0000
888,33;-53,000
888,88;-1,0000
889,43;48,000
889,98;28,000
890,53;-45,000
891,08;69,000
891,63;54,000
892,18;7,0000
892,73;169,00
893,28;70,000
893,83;-14,000
894,38;-56,000
894,93;13,000
895,48;97,000
896,03;61,000
896,59;24,000
897,14;22,000
897,69;114,00
898,24;92,000
898,79;37,000
899,34;40,000
899,89;63,000
900,44;63,000
900,99;78,000
901,53;-49,000
902,08;14,000
902,63;22,000
903,18;41,000
903,73;53,000
904,28;104,00
904,83;-39,000
905,38;117,00
905,93;13,000
906,48;-28,000
907,03;82,000
907,58;-50,000
908,13;-53,000
908,68;30,000
909,23;18,000
909,78;-20,000
910,32;-4,0000
910,87;91,000
911,42;160,00
911,97;16,000
912,52;111,00
913,07;-42,000
913,62;21,000
914,17;-31,000
914,71;27,000
915,26;126,00
915,81;-19,000
916,36;-76,000
916,91;-21,000
917,46;26,000
918,00;22,000
918,55;10,0000
919,10;-43,000
919,65;-91,000
920,20;10,0000
920,74;49,000
921,29;19,000
921,84;-31,000
922,39;28,000
922,94;12,000
923,48;-89,000
924,03;71,000
924,58;-35,000
925,13;-24,000
925,67;-65,000
926,22;57,000
926,77;-15,000
927,32;-6,0000
927,86;44,000
928,41;-68,000
928,96;-15,000
929,50;-70,000
930,05;-3,0000
930,60;-4,0000
931,15;19,000
931,69;-123,00
932,24;-25,000
932,79;10,0000
933,33;13,000
933,88;-22,000
934,43;68,000
934,97;13,000
935,52;153,00
936,07;-37,000
936,61;1,0000
937,16;-11,000
937,71;-35,000
938,25;111,00
938,80;-165,00
939,34;-58,000
939,89;-18,000
940,44;53,000
940,98;-58,000
941,53;65,000
942,07;10,0000
942,62;5,0000
943,17;78,000
943,71;3,0000
944,26;-42,000
944,80;85,000
945,35;42,000
945,89;-108,00
946,44;24,000
946,99;-24,000
947,53;27,000
948,08;38,000
948,62;9,0000
949,17;24,000
949,71;78,000
950,26;-16,000
950,80;58,000
951,35;101,00
951,89;4,0000
952,44;52,000
952,98;-57,000
953,53;-32,000
954,07;24,000
954,62;-13,000
955,16;-16,000
955,71;81,000
956,25;-46,000
956,79;-60,000
957,34;-21,000
957,88;-26,000
958,43;79,000
958,97;-63,000
959,52;-39,000
960,06;78,000
960,60;79,000
961,15;91,000
961,69;96,000
962,24;20,000
962,78;86,000
963,32;31,000
963,87;36,000
964,41;-13,000
964,96;-92,000
965,50;57,000
966,04;104,00
966,59;43,000
967,13;13,000
967,67;-64,000
968,22;19,000
968,76;110,00
969,30;123,00
969,85;0
970,39;-40,000
970,93;-144,00
971,47;135,00
972,02;58,000
972,56;118,00
973,10;69,000
973,65;-14,000
974,19;68,000
974,73;27,000
975,27;-78,000
975,82;-9,0000
976,36;-57,000
976,90;11,000
977,44;24,000
977,99;38,000
978,53;13,000
979,07;-11,000
979,61;63,000
980,16;52,000
980,70;12,000
981,24;100,000
981,78;50,000
982,32;-48,000
982,87;40,000
983,41;52,000
983,95;131,00
984,49;70,000
985,03;67,000
985,57;64,000
986,12;-4,0000
986,66;-121,00
987,20;52,000
987,74;26,000
988,28;-12,000
988,82;36,000
989,36;1,0000
989,91;-36,000
990,45;15,000
990,99;-13,000
991,53;20,000
992,07;37,000
992,61;-97,000
993,15;-31,000
993,69;-20,000
994,23;58,000
994,77;76,000
995,31;52,000
995,86;7,0000
996,40;-30,000
996,94;12,000
997,48;115,00
998,02;39,000
998,56;28,000
999,10;-61,000
999,64;7,0000
1000,18;36,000
1000,72;28,000
1001,26;139,00
1001,80;-38,000
1002,34;6,0000
1002,88;-29,000
1003,42;-7,0000
1003,96;-77,000
1004,50;22,000
1005,04;47,000
1005,58;60,000
1006,12;149,00
1006,66;-23,000
1007,20;46,000
1007,73;-8,0000
1008,27;125,00
1008,81;75,000
1009,35;141,00
1009,89;-7,0000
1010,43;3,0000
1010,97;20,000
1011,51;83,000
1012,05;38,000
1012,59;43,000
1013,13;22,000
1013,66;49,000
1014,20;-47,000
1014,74;0
1015,28;-78,000
1015,82;-5,0000
1016,36;5,0000
1016,90;67,000
1017,43;9,0000
1017,97;41,000
1018,51;63,000
1019,05;-9,0000
1019,59;-14,000
1020,13;-28,000
1020,66;-68,000
1021,20;-54,000
1021,74;33,000
1022,28;-18,000
1022,81;-24,000
1023,35;88,000
1023,89;-110,00
1024,43;19,000
1024,97;63,000
1025,50;23,000
1026,04;49,000
1026,58;-25,000
1027,12;38,000
1027,65;48,000
1028,19;20,000
1028,73;-37,000
1029,26;40,000
1029,80;51,000
1030,34;-11,000
1030,88;24,000
1031,41;-60,000
1031,95;-19,000
1032,49;-67,000
1033,02;-4,0000
1033,56;-30,000
1034,10;-65,000
1034,63;31,000
1035,17;21,000
1035,71;-5,0000
1036,24;-31,000
1036,78;47,000
1037,32;8,0000
1037,85;5,0000
1038,39;-20,000
1038,92;67,000
1039,46;-62,000
1040,00;-138,00
1040,53;121,00
1041,07;5,0000
1041,60;103,00
1042,14;77,000
1042,68;-70,000
1043,21;20,000
1043,75;-38,000
1044,28;-53,000
1044,82;-147,00
1045,35;-70,000
1045,89;-77,000
1046,42;-12,000
1046,96;-43,000
1047,49;64,000
1048,03;-8,0000
1048,57;-50,000
1049,10;40,000
1049,64;92,000
1050,17;-1,0000
1050,70;94,000
1051,24;7,0000
1051,77;15,000
1052,31;155,00
1052,84;13,000
1053,38;129,00
1053,91;-29,000
1054,45;-50,000
1054,98;-48,000
1055,52;-24,000
1056,05;19,000
1056,59;-18,000
1057,12;-31,000
1057,65;163,00
1058,19;-3,0000
1058,72;122,00
1059,26;-55,000
1059,79;-58,000
1060,32;60,000
1060,86;38,000
1061,39;-11,000
1061,93;9,0000
1062,46;98,000
1062,99;-16,000
1063,53;19,000
1064,06;-16,000
1064,59;-59,000
1065,13;4,0000
1065,66;-17,000
1066,19;78,000
1066,73;65,000
1067,26;-22,000
1067,79;58,000
1068,33;-5,0000
1068,86;-8,0000
1069,39;48,000
1069,92;60,000
1070,46;-83,000
1070,99;-57,000
1071,52;32,000
1072,05;81,000
1072,59;39,000
1073,12;-3,0000
1073,65;-7,0000
1074,18;120,00
1074,72;24,000
1075,25;-16,000
1075,78;-4,0000
1076,31;-39,000
1076,85;118,00
1077,38;161,00
1077,91;-60,000
1078,44;9,0000
1078,97;74,000
1079,51;122,00
1080,04;-36,000
1080,57;5,0000
1081,10;66,000
1081,63;38,000
1082,16;-21,000
1082,70;-42,000
1083,23;24,000
1083,76;82,000
1084,29;-21,000
1084,82;-10,0000
1085,35;-6,0000
1085,88;-13,000
1086,41;31,000
1086,94;26,000
1087,48;28,000
1088,01;19,000
1088,54;26,000
1089,07;77,000
1089,60;-47,000
1090,13;36,000
1090,66;6,0000
1091,19;23,000
1091,72;14,000
1092,25;-26,000
1092,78;22,000
1093,31;13,000
1093,84;21,000
1094,37;36,000
1094,90;11,000
1095,43;-98,000
1095,96;59,000
1096,49;48,000
1097,02;32,000
1097,55;13,000
1098,08;-41,000
1098,61;-59,000
1099,14;-45,000
1099,67;-16,000
1100,20;8,0000
