M- 278
Integration time: 3000 ms
Average: 1 scans
Nr of pixels used for smoothing: 0
Data measured with spectrometer serial number: 0604021S1
Wave   ;Sample
[nm]   ;[counts]
173,70;-8,0000
174,30;76,000
174,90;55,000
175,50;64,000
176,10;65,000
176,70;37,000
177,30;89,000
177,90;-17,000
178,50;-1,0000
179,10;55,000
179,70;-21,000
180,30;3,0000
180,89;89,000
181,49;43,000
182,09;111,00
182,69;91,000
183,29;26,000
183,89;45,000
184,49;55,000
185,09;129,00
185,69;-10,0000
186,29;103,00
186,89;9,0000
187,48;37,000
188,08;67,000
188,68;118,00
189,28;-7,0000
189,88;-1,0000
190,48;19,000
191,08;-35,000
191,68;121,00
192,28;-2,0000
192,87;64,000
193,47;47,000
194,07;63,000
194,67;89,000
195,27;93,000
195,87;11,000
196,47;109,00
197,06;70,000
197,66;6,0000
198,26;108,00
198,86;55,000
199,46;-3,0000
200,06;47,000
200,66;75,000
201,25;87,000
201,85;62,000
202,45;126,00
203,05;33,000
203,65;76,000
204,24;21,000
204,84;26,000
205,44;153,00
206,04;117,00
206,64;28,000
207,24;40,000
207,83;34,000
208,43;50,000
209,03;83,000
209,63;45,000
210,22;154,00
210,82;112,00
211,42;20,000
212,02;11,000
212,62;92,000
213,21;58,000
213,81;90,000
214,41;48,000
215,01;85,000
215,60;58,000
216,20;33,000
216,80;-23,000
217,40;34,000
218,00;96,000
218,59;23,000
219,19;109,00
219,79;88,000
220,38;152,00
220,98;113,00
221,58;81,000
222,18;88,000
222,77;139,00
223,37;42,000
223,97;75,000
224,57;143,00
225,16;130,00
225,76;92,000
226,36;130,00
226,95;163,00
227,55;120,00
228,15;93,000
228,75;186,00
229,34;127,00
229,94;122,00
230,54;58,000
231,13;85,000
231,73;111,00
232,33;77,000
232,92;104,00
233,52;69,000
234,12;95,000
234,71;30,000
235,31;119,00
235,91;104,00
236,50;62,000
237,10;76,000
237,70;83,000
238,29;90,000
238,89;169,00
239,49;174,00
240,08;57,000
240,68;126,00
241,28;177,00
241,87;75,000
242,47;134,00
243,06;35,000
243,66;52,000
244,26;40,000
244,85;112,00
245,45;67,000
246,05;68,000
246,64;193,00
247,24;134,00
247,83;254,00
248,43;162,00
249,03;117,00
249,62;194,00
250,22;164,00
250,81;204,00
251,41;161,00
252,01;197,00
252,60;45,000
253,20;173,00
253,79;124,00
254,39;119,00
254,98;127,00
255,58;144,00
256,18;129,00
256,77;73,000
257,37;12,000
257,96;55,000
258,56;86,000
259,15;156,00
259,75;102,00
260,34;76,000
260,94;89,000
261,53;245,00
262,13;145,00
262,73;100,000
263,32;45,000
263,92;15,000
264,51;112,00
265,11;127,00
265,70;122,00
266,30;90,000
266,89;102,00
267,49;48,000
268,08;192,00
268,68;130,00
269,27;-5,0000
269,87;128,00
270,46;210,00
271,06;68,000
271,65;214,00
272,25;127,00
272,84;104,00
273,44;147,00
274,03;59,000
274,62;130,00
275,22;138,00
275,81;67,000
276,41;115,00
277,00;97,000
277,60;124,00
278,19;25,000
278,79;142,00
279,38;36,000
279,98;122,00
280,57;207,00
281,16;212,00
281,76;254,00
282,35;251,00
282,95;252,00
283,54;188,00
284,14;200,00
284,73;289,00
285,32;104,00
285,92;107,00
286,51;50,000
287,11;192,00
287,70;140,00
288,29;164,00
288,89;154,00
289,48;72,000
290,08;185,00
290,67;130,00
291,26;241,00
291,86;73,000
292,45;159,00
293,04;242,00
293,64;250,00
294,23;438,00
294,83;646,00
295,42;1099,0
296,01;1384,0
296,61;1675,0
297,20;2001,0
297,79;1961,0
298,39;1803,0
298,98;1618,0
299,57;1213,0
300,17;883,00
300,76;727,00
301,35;227,00
301,95;152,00
302,54;162,00
303,13;193,00
303,73;153,00
304,32;198,00
304,91;160,00
305,51;165,00
306,10;253,00
306,69;242,00
307,28;237,00
307,88;373,00
308,47;425,00
309,06;556,00
309,66;707,00
310,25;972,00
310,84;1412,0
311,43;1687,0
312,03;2052,0
312,62;2839,0
313,21;3707,0
313,81;3914,0
314,40;4677,0
314,99;6421,0
315,58;8038,0
316,18;7881,0
316,77;7664,0
317,36;6438,0
317,95;5992,0
318,54;5191,0
319,14;3540,0
319,73;1093,0
320,32;310,00
320,91;269,00
321,51;368,00
322,10;325,00
322,69;344,00
323,28;353,00
323,87;343,00
324,47;646,00
325,06;579,00
325,65;703,00
326,24;850,00
326,83;1148,0
327,43;1230,0
328,02;1372,0
328,61;1368,0
329,20;1391,0
329,79;1373,0
330,39;1351,0
330,98;1391,0
331,57;1158,0
332,16;1190,0
332,75;1158,0
333,34;1459,0
333,93;1687,0
334,53;1930,0
335,12;2933,0
335,71;5649,0
336,30;10318
336,89;14225
337,48;14095
338,07;14278
338,67;13840
339,26;13086
339,85;11043
340,44;6866,0
341,03;1528,0
341,62;555,00
342,21;595,00
342,80;409,00
343,39;464,00
343,99;546,00
344,58;482,00
345,17;440,00
345,76;532,00
346,35;534,00
346,94;552,00
347,53;640,00
348,12;808,00
348,71;895,00
349,30;1093,0
349,89;1259,0
350,48;1481,0
351,07;1651,0
351,66;2059,0
352,26;2783,0
352,85;4175,0
353,44;5073,0
354,03;5102,0
354,62;5437,0
355,21;5945,0
355,80;6781,0
356,39;8394,0
356,98;11281
357,57;11759
358,16;11765
358,75;11746
359,34;11363
359,93;10225
360,52;8274,0
361,11;4506,0
361,70;1042,0
362,29;579,00
362,88;664,00
363,47;568,00
364,06;646,00
364,65;770,00
365,24;762,00
365,83;791,00
366,42;1037,0
367,01;1108,0
367,60;1146,0
368,19;1147,0
368,78;1255,0
369,37;1412,0
369,95;1729,0
370,54;2197,0
371,13;2060,0
371,72;2274,0
372,31;2364,0
372,90;2473,0
373,49;2555,0
374,08;3078,0
374,67;3731,0
375,26;4833,0
375,85;4773,0
376,44;4742,0
377,03;4615,0
377,61;4597,0
378,20;4309,0
378,79;3988,0
379,38;3857,0
379,97;5760,0
380,56;5884,0
381,15;5985,0
381,74;5996,0
382,33;6005,0
382,91;5440,0
383,50;4540,0
384,09;2855,0
384,68;2414,0
385,27;2583,0
385,86;2814,0
386,45;3102,0
387,03;3079,0
387,62;3656,0
388,21;3582,0
388,80;3479,0
389,39;3258,0
389,98;2876,0
390,57;2902,0
391,15;2781,0
391,74;2288,0
392,33;1915,0
392,92;1868,0
393,51;2081,0
394,09;2255,0
394,68;1825,0
395,27;1794,0
395,86;1700,0
396,45;1625,0
397,03;1568,0
397,62;1297,0
398,21;1286,0
398,80;1852,0
399,39;2420,0
399,97;2576,0
400,56;2519,0
401,15;2442,0
401,74;2427,0
402,32;2168,0
402,91;1817,0
403,50;1284,0
404,09;1245,0
404,67;1520,0
405,26;2195,0
405,85;2450,0
406,44;2530,0
407,02;2459,0
407,61;2691,0
408,20;2526,0
408,78;2277,0
409,37;1719,0
409,96;1359,0
410,55;1265,0
411,13;1338,0
411,72;1251,0
412,31;1333,0
412,89;1413,0
413,48;1471,0
414,07;1591,0
414,65;1708,0
415,24;1833,0
415,83;1701,0
416,42;1739,0
417,00;1780,0
417,59;1656,0
418,18;1668,0
418,76;1836,0
419,35;2101,0
419,94;2135,0
420,52;2177,0
421,11;2251,0
421,69;1992,0
422,28;1896,0
422,87;1879,0
423,45;1559,0
424,04;1180,0
424,63;1379,0
425,21;1481,0
425,80;1691,0
426,38;2205,0
426,97;2234,0
427,56;2290,0
428,14;2278,0
428,73;2232,0
429,31;2122,0
429,90;1765,0
430,49;1250,0
431,07;958,00
431,66;744,00
432,24;827,00
432,83;895,00
433,42;1076,0
434,00;1409,0
434,59;1552,0
435,17;1467,0
435,76;1463,0
436,34;1485,0
436,93;1410,0
437,51;1243,0
438,10;856,00
438,69;742,00
439,27;523,00
439,86;552,00
440,44;551,00
441,03;674,00
441,61;733,00
442,20;655,00
442,78;664,00
443,37;574,00
443,95;631,00
444,54;585,00
445,12;554,00
445,71;443,00
446,29;590,00
446,88;609,00
447,46;650,00
448,05;857,00
448,63;860,00
449,22;827,00
449,80;879,00
450,39;764,00
450,97;661,00
451,56;681,00
452,14;607,00
452,72;528,00
453,31;451,00
453,89;512,00
454,48;436,00
455,06;542,00
455,65;548,00
456,23;669,00
456,81;786,00
457,40;820,00
457,98;845,00
458,57;757,00
459,15;787,00
459,74;694,00
460,32;613,00
460,90;448,00
461,49;407,00
462,07;451,00
462,66;477,00
463,24;452,00
463,82;543,00
464,41;621,00
464,99;589,00
465,57;728,00
466,16;794,00
466,74;673,00
467,33;634,00
467,91;603,00
468,49;568,00
469,08;577,00
469,66;408,00
470,24;436,00
470,83;413,00
471,41;411,00
471,99;515,00
472,58;476,00
473,16;475,00
473,74;506,00
474,33;447,00
474,91;448,00
475,49;335,00
476,08;248,00
476,66;231,00
477,24;354,00
477,82;363,00
478,41;343,00
478,99;360,00
479,57;363,00
480,16;420,00
480,74;528,00
481,32;526,00
481,90;502,00
482,49;483,00
483,07;555,00
483,65;556,00
484,23;552,00
484,82;629,00
485,40;640,00
485,98;736,00
486,56;830,00
487,15;779,00
487,73;842,00
488,31;838,00
488,89;890,00
489,47;712,00
490,06;620,00
490,64;637,00
491,22;602,00
491,80;440,00
492,39;356,00
492,97;472,00
493,55;491,00
494,13;431,00
494,71;410,00
495,29;369,00
495,88;329,00
496,46;352,00
497,04;330,00
497,62;391,00
498,20;357,00
498,78;284,00
499,37;242,00
499,95;416,00
500,53;362,00
501,11;443,00
501,69;370,00
502,27;384,00
502,85;393,00
503,44;350,00
504,02;364,00
504,60;302,00
505,18;291,00
505,76;321,00
506,34;343,00
506,92;290,00
507,50;319,00
508,08;266,00
508,67;216,00
509,25;302,00
509,83;290,00
510,41;264,00
510,99;200,00
511,57;190,00
512,15;258,00
512,73;200,00
513,31;274,00
513,89;190,00
514,47;317,00
515,05;281,00
515,63;281,00
516,21;297,00
516,79;256,00
517,38;270,00
517,96;280,00
518,54;239,00
519,12;246,00
519,70;271,00
520,28;211,00
520,86;234,00
521,44;334,00
522,02;327,00
522,60;236,00
523,18;341,00
523,76;251,00
524,34;311,00
524,92;326,00
525,50;181,00
526,08;248,00
526,66;225,00
527,24;193,00
527,82;219,00
528,39;234,00
528,97;244,00
529,55;189,00
530,13;233,00
530,71;332,00
531,29;185,00
531,87;192,00
532,45;219,00
533,03;339,00
533,61;239,00
534,19;379,00
534,77;290,00
535,35;279,00
535,93;257,00
536,51;283,00
537,08;305,00
537,66;306,00
538,24;177,00
538,82;203,00
539,40;230,00
539,98;357,00
540,56;215,00
541,14;278,00
541,72;235,00
542,29;357,00
542,87;354,00
543,45;356,00
544,03;288,00
544,61;197,00
545,19;241,00
545,77;268,00
546,34;234,00
546,92;233,00
547,50;251,00
548,08;200,00
548,66;281,00
549,23;249,00
549,81;303,00
550,39;268,00
550,97;150,00
551,55;145,00
552,13;202,00
552,70;242,00
553,28;190,00
553,86;194,00
554,44;254,00
555,01;184,00
555,59;340,00
556,17;262,00
556,75;262,00
557,33;217,00
557,90;294,00
558,48;233,00
559,06;380,00
559,64;327,00
560,21;297,00
560,79;254,00
561,37;180,00
561,95;352,00
562,52;214,00
563,10;229,00
563,68;192,00
564,25;270,00
564,83;235,00
565,41;246,00
565,99;242,00
566,56;227,00
567,14;181,00
567,72;185,00
568,29;292,00
568,87;337,00
569,45;308,00
570,02;190,00
570,60;196,00
571,18;359,00
571,75;294,00
572,33;215,00
572,91;263,00
573,48;276,00
574,06;261,00
574,64;259,00
575,21;275,00
575,79;323,00
576,37;337,00
576,94;262,00
577,52;299,00
578,09;279,00
578,67;325,00
579,25;338,00
579,82;265,00
580,40;345,00
580,97;253,00
581,55;376,00
582,13;330,00
582,70;324,00
583,28;329,00
583,85;336,00
584,43;200,00
585,01;205,00
585,58;271,00
586,16;352,00
586,73;328,00
587,31;334,00
587,88;192,00
588,46;286,00
589,03;209,00
589,61;270,00
590,18;312,00
590,76;332,00
591,34;382,00
591,91;314,00
592,49;385,00
593,06;271,00
593,64;263,00
594,21;237,00
594,79;194,00
595,36;186,00
595,94;218,00
596,51;258,00
597,09;181,00
597,66;217,00
598,24;246,00
598,81;241,00
599,38;294,00
599,96;283,00
600,53;222,00
601,11;202,00
601,68;288,00
602,26;283,00
602,83;228,00
603,41;249,00
603,98;223,00
604,56;259,00
605,13;289,00
605,70;231,00
606,28;157,00
606,85;165,00
607,43;205,00
608,00;286,00
608,57;150,00
609,15;285,00
609,72;155,00
610,30;143,00
610,87;252,00
611,44;139,00
612,02;236,00
612,59;267,00
613,16;301,00
613,74;253,00
614,31;250,00
614,89;292,00
615,46;239,00
616,03;283,00
616,61;272,00
617,18;236,00
617,75;300,00
618,33;306,00
618,90;261,00
619,47;273,00
620,05;373,00
620,62;234,00
621,19;224,00
621,77;138,00
622,34;194,00
622,91;238,00
623,48;172,00
624,06;245,00
624,63;160,00
625,20;224,00
625,78;210,00
626,35;201,00
626,92;198,00
627,49;164,00
628,07;183,00
628,64;145,00
629,21;241,00
629,78;179,00
630,36;226,00
630,93;211,00
631,50;149,00
632,07;173,00
632,65;210,00
633,22;256,00
633,79;200,00
634,36;217,00
634,93;225,00
635,51;247,00
636,08;163,00
636,65;197,00
637,22;206,00
637,79;124,00
638,37;168,00
638,94;211,00
639,51;187,00
640,08;266,00
640,65;207,00
641,22;220,00
641,80;178,00
642,37;168,00
642,94;160,00
643,51;231,00
644,08;173,00
644,65;226,00
645,22;224,00
645,80;196,00
646,37;245,00
646,94;260,00
647,51;339,00
648,08;311,00
648,65;372,00
649,22;253,00
649,79;372,00
650,36;449,00
650,93;317,00
651,51;426,00
652,08;379,00
652,65;341,00
653,22;298,00
653,79;392,00
654,36;369,00
654,93;518,00
655,50;862,00
656,07;1276,0
656,64;1386,0
657,21;1474,0
657,78;1570,0
658,35;1568,0
658,92;1520,0
659,49;1458,0
660,06;1113,0
660,63;757,00
661,20;665,00
661,77;716,00
662,34;730,00
662,91;575,00
663,48;557,00
664,05;472,00
664,62;441,00
665,19;369,00
665,76;374,00
666,33;208,00
666,90;408,00
667,47;290,00
668,04;392,00
668,61;328,00
669,18;409,00
669,75;268,00
670,32;287,00
670,89;371,00
671,46;237,00
672,03;297,00
672,60;231,00
673,17;273,00
673,74;278,00
674,30;276,00
674,87;269,00
675,44;225,00
676,01;255,00
676,58;250,00
677,15;237,00
677,72;281,00
678,29;302,00
678,86;294,00
679,42;208,00
679,99;198,00
680,56;213,00
681,13;267,00
681,70;191,00
682,27;74,000
682,84;182,00
683,40;141,00
683,97;233,00
684,54;66,000
685,11;162,00
685,68;230,00
686,25;141,00
686,81;110,00
687,38;171,00
687,95;213,00
688,52;118,00
689,09;174,00
689,65;86,000
690,22;105,00
690,79;168,00
691,36;125,00
691,92;79,000
692,49;111,00
693,06;114,00
693,63;163,00
694,20;116,00
694,76;79,000
695,33;214,00
695,90;151,00
696,47;140,00
697,03;124,00
697,60;72,000
698,17;188,00
698,73;78,000
699,30;167,00
699,87;173,00
700,44;137,00
701,00;151,00
701,57;147,00
702,14;120,00
702,70;107,00
703,27;165,00
703,84;144,00
704,40;126,00
704,97;111,00
705,54;127,00
706,10;126,00
706,67;113,00
707,24;151,00
707,80;65,000
708,37;145,00
708,94;155,00
709,50;70,000
710,07;99,000
710,64;107,00
711,20;115,00
711,77;86,000
712,33;155,00
712,90;154,00
713,47;71,000
714,03;191,00
714,60;80,000
715,16;157,00
715,73;116,00
716,30;154,00
716,86;163,00
717,43;159,00
717,99;174,00
718,56;294,00
719,12;55,000
719,69;62,000
720,26;131,00
720,82;120,00
721,39;118,00
721,95;169,00
722,52;77,000
723,08;69,000
723,65;163,00
724,21;125,00
724,78;122,00
725,34;170,00
725,91;114,00
726,47;85,000
727,04;109,00
727,60;111,00
728,17;249,00
728,73;153,00
729,30;151,00
729,86;237,00
730,43;143,00
730,99;64,000
731,56;129,00
732,12;170,00
732,68;83,000
733,25;130,00
733,81;198,00
734,38;107,00
734,94;98,000
735,51;227,00
736,07;250,00
736,63;154,00
737,20;155,00
737,76;239,00
738,33;171,00
738,89;134,00
739,46;244,00
740,02;112,00
740,58;96,000
741,15;312,00
741,71;203,00
742,27;252,00
742,84;112,00
743,40;166,00
743,97;297,00
744,53;436,00
745,09;468,00
745,66;341,00
746,22;435,00
746,78;506,00
747,35;486,00
747,91;576,00
748,47;400,00
749,04;429,00
749,60;405,00
750,16;494,00
750,72;342,00
751,29;239,00
751,85;160,00
752,41;123,00
752,98;163,00
753,54;127,00
754,10;138,00
754,66;95,000
755,23;113,00
755,79;76,000
756,35;140,00
756,91;119,00
757,48;187,00
758,04;186,00
758,60;102,00
759,16;145,00
759,73;142,00
760,29;155,00
760,85;173,00
761,41;149,00
761,98;187,00
762,54;136,00
763,10;100,000
763,66;54,000
764,22;153,00
764,79;157,00
765,35;112,00
765,91;125,00
766,47;147,00
767,03;75,000
767,59;150,00
768,16;185,00
768,72;140,00
769,28;62,000
769,84;50,000
770,40;53,000
770,96;158,00
771,52;154,00
772,09;135,00
772,65;120,00
773,21;205,00
773,77;62,000
774,33;82,000
774,89;243,00
775,45;163,00
776,01;127,00
776,57;289,00
777,13;604,00
777,70;759,00
778,26;752,00
778,82;711,00
779,38;769,00
779,94;804,00
780,50;696,00
781,06;395,00
781,62;193,00
782,18;71,000
782,74;42,000
783,30;47,000
783,86;55,000
784,42;69,000
784,98;24,000
785,54;49,000
786,10;147,00
786,66;66,000
787,22;31,000
787,78;56,000
788,34;3,0000
788,90;52,000
789,46;71,000
790,02;154,00
790,58;95,000
791,14;68,000
791,70;75,000
792,26;76,000
792,82;46,000
793,38;58,000
793,94;42,000
794,50;108,00
795,06;67,000
795,62;51,000
796,17;114,00
796,73;124,00
797,29;74,000
797,85;123,00
798,41;85,000
798,97;84,000
799,53;46,000
800,09;65,000
800,65;130,00
801,21;21,000
801,76;16,000
802,32;88,000
802,88;104,00
803,44;-21,000
804,00;63,000
804,56;75,000
805,12;118,00
805,67;54,000
806,23;95,000
806,79;55,000
807,35;52,000
807,91;15,000
808,46;36,000
809,02;69,000
809,58;72,000
810,14;69,000
810,70;77,000
811,26;79,000
811,81;50,000
812,37;58,000
812,93;29,000
813,49;126,00
814,04;104,00
814,60;28,000
815,16;132,00
815,72;103,00
816,27;114,00
816,83;7,0000
817,39;66,000
817,95;52,000
818,50;136,00
819,06;240,00
819,62;196,00
820,18;141,00
820,73;225,00
821,29;341,00
821,85;472,00
822,40;374,00
822,96;323,00
823,52;298,00
824,07;321,00
824,63;353,00
825,19;325,00
825,74;211,00
826,30;133,00
826,86;200,00
827,41;69,000
827,97;103,00
828,53;80,000
829,08;25,000
829,64;59,000
830,20;54,000
830,75;86,000
831,31;58,000
831,86;44,000
832,42;67,000
832,98;68,000
833,53;-17,000
834,09;27,000
834,64;115,00
835,20;34,000
835,76;58,000
836,31;107,00
836,87;133,00
837,42;27,000
837,98;68,000
838,53;98,000
839,09;-9,0000
839,64;64,000
840,20;81,000
840,75;32,000
841,31;122,00
841,87;134,00
842,42;66,000
842,98;15,000
843,53;28,000
844,09;56,000
844,64;135,00
845,20;231,00
845,75;213,00
846,31;123,00
846,86;213,00
847,41;106,00
847,97;137,00
848,52;183,00
849,08;148,00
849,63;54,000
850,19;64,000
850,74;49,000
851,30;22,000
851,85;46,000
852,41;68,000
852,96;39,000
853,51;49,000
854,07;-48,000
854,62;42,000
855,18;86,000
855,73;12,000
856,28;136,00
856,84;54,000
857,39;72,000
857,95;88,000
858,50;105,00
859,05;135,00
859,61;79,000
860,16;149,00
860,71;155,00
861,27;88,000
861,82;75,000
862,37;89,000
862,93;179,00
863,48;85,000
864,03;83,000
864,59;122,00
865,14;143,00
865,69;106,00
866,25;310,00
866,80;184,00
867,35;146,00
867,90;241,00
868,46;275,00
869,01;266,00
869,56;306,00
870,12;342,00
870,67;348,00
871,22;429,00
871,77;372,00
872,33;218,00
872,88;233,00
873,43;138,00
873,98;174,00
874,54;184,00
875,09;62,000
875,64;34,000
876,19;133,00
876,74;96,000
877,30;67,000
877,85;278,00
878,40;92,000
878,95;-6,0000
879,50;57,000
880,06;29,000
880,61;-17,000
881,16;108,00
881,71;79,000
882,26;101,00
882,81;47,000
883,37;13,000
883,92;134,00
884,47;23,000
885,02;76,000
885,57;51,000
886,12;36,000
886,67;124,00
887,22;120,00
887,78;70,000
888,33;82,000
888,88;7,0000
889,43;57,000
889,98;56,000
890,53;53,000
891,08;92,000
891,63;129,00
892,18;110,00
892,73;102,00
893,28;7,0000
893,83;67,000
894,38;20,000
894,93;37,000
895,48;76,000
896,03;63,000
896,59;59,000
897,14;97,000
897,69;26,000
898,24;-10,0000
898,79;52,000
899,34;102,00
899,89;130,00
900,44;30,000
900,99;-45,000
901,53;33,000
902,08;97,000
902,63;142,00
903,18;38,000
903,73;8,0000
904,28;60,000
904,83;96,000
905,38;154,00
905,93;96,000
906,48;155,00
907,03;67,000
907,58;100,000
908,13;131,00
908,68;79,000
909,23;68,000
909,78;74,000
910,32;124,00
910,87;119,00
911,42;13,000
911,97;1,0000
912,52;146,00
913,07;83,000
913,62;127,00
914,17;18,000
914,71;115,00
915,26;44,000
915,81;-47,000
916,36;106,00
916,91;6,0000
917,46;20,000
918,00;69,000
918,55;55,000
919,10;90,000
919,65;107,00
920,20;7,0000
920,74;-36,000
921,29;-26,000
921,84;-13,000
922,39;63,000
922,94;2,0000
923,48;-12,000
924,03;41,000
924,58;32,000
925,13;49,000
925,67;44,000
926,22;55,000
926,77;41,000
927,32;53,000
927,86;105,00
928,41;107,00
928,96;93,000
929,50;66,000
930,05;24,000
930,60;58,000
931,15;74,000
931,69;142,00
932,24;32,000
932,79;19,000
933,33;64,000
933,88;24,000
934,43;12,000
934,97;13,000
935,52;90,000
936,07;46,000
936,61;15,000
937,16;10,0000
937,71;64,000
938,25;70,000
938,80;93,000
939,34;83,000
939,89;47,000
940,44;209,00
940,98;89,000
941,53;110,00
942,07;123,00
942,62;173,00
943,17;59,000
943,71;104,00
944,26;27,000
944,80;86,000
945,35;93,000
945,89;17,000
946,44;87,000
946,99;8,0000
947,53;36,000
948,08;56,000
948,62;27,000
949,17;119,00
949,71;84,000
950,26;100,000
950,80;1,0000
951,35;27,000
951,89;27,000
952,44;47,000
952,98;11,000
953,53;156,00
954,07;54,000
954,62;7,0000
955,16;10,0000
955,71;40,000
956,25;86,000
956,79;59,000
957,34;46,000
957,88;93,000
958,43;-18,000
958,97;34,000
959,52;0
960,06;42,000
960,60;65,000
961,15;-10,0000
961,69;42,000
962,24;101,00
962,78;45,000
963,32;100,000
963,87;80,000
964,41;44,000
964,96;27,000
965,50;-23,000
966,04;-22,000
966,59;47,000
967,13;5,0000
967,67;96,000
968,22;55,000
968,76;63,000
969,30;-9,0000
969,85;83,000
970,39;48,000
970,93;8,0000
971,47;81,000
972,02;-41,000
972,56;55,000
973,10;14,000
973,65;18,000
974,19;70,000
974,73;24,000
975,27;28,000
975,82;40,000
976,36;49,000
976,90;87,000
977,44;-4,0000
977,99;-15,000
978,53;135,00
979,07;66,000
979,61;12,000
980,16;-47,000
980,70;41,000
981,24;128,00
981,78;27,000
982,32;32,000
982,87;162,00
983,41;76,000
983,95;113,00
984,49;29,000
985,03;96,000
985,57;-10,0000
986,12;8,0000
986,66;96,000
987,20;19,000
987,74;80,000
988,28;83,000
988,82;169,00
989,36;95,000
989,91;121,00
990,45;55,000
990,99;-1,0000
991,53;76,000
992,07;43,000
992,61;99,000
993,15;-7,0000
993,69;40,000
994,23;85,000
994,77;54,000
995,31;79,000
995,86;72,000
996,40;20,000
996,94;45,000
997,48;86,000
998,02;77,000
998,56;93,000
999,10;58,000
999,64;95,000
1000,18;20,000
1000,72;67,000
1001,26;87,000
1001,80;28,000
1002,34;50,000
1002,88;-8,0000
1003,42;16,000
1003,96;95,000
1004,50;62,000
1005,04;85,000
1005,58;12,000
1006,12;80,000
1006,66;25,000
1007,20;-62,000
1007,73;23,000
1008,27;37,000
1008,81;6,0000
1009,35;-35,000
1009,89;11,000
1010,43;112,00
1010,97;33,000
1011,51;147,00
1012,05;31,000
1012,59;124,00
1013,13;104,00
1013,66;126,00
1014,20;82,000
1014,74;-4,0000
1015,28;60,000
1015,82;105,00
1016,36;90,000
1016,90;43,000
1017,43;80,000
1017,97;-5,0000
1018,51;4,0000
1019,05;19,000
1019,59;19,000
1020,13;111,00
1020,66;35,000
1021,20;108,00
1021,74;120,00
1022,28;80,000
1022,81;72,000
1023,35;63,000
1023,89;86,000
1024,43;45,000
1024,97;40,000
1025,50;92,000
1026,04;-1,0000
1026,58;46,000
1027,12;81,000
1027,65;-3,0000
1028,19;77,000
1028,73;-11,000
1029,26;30,000
1029,80;5,0000
1030,34;-47,000
1030,88;104,00
1031,41;99,000
1031,95;67,000
1032,49;42,000
1033,02;52,000
1033,56;83,000
1034,10;10,0000
1034,63;37,000
1035,17;16,000
1035,71;99,000
1036,24;16,000
1036,78;62,000
1037,32;48,000
1037,85;12,000
1038,39;31,000
1038,92;-31,000
1039,46;-39,000
1040,00;31,000
1040,53;42,000
1041,07;129,00
1041,60;121,00
1042,14;34,000
1042,68;43,000
1043,21;13,000
1043,75;60,000
1044,28;52,000
1044,82;112,00
1045,35;47,000
1045,89;65,000
1046,42;33,000
1046,96;16,000
1047,49;46,000
1048,03;60,000
1048,57;32,000
1049,10;73,000
1049,64;-12,000
1050,17;58,000
1050,70;52,000
1051,24;-9,0000
1051,77;78,000
1052,31;69,000
1052,84;154,00
1053,38;15,000
1053,91;86,000
1054,45;-7,0000
1054,98;-2,0000
1055,52;6,0000
1056,05;94,000
1056,59;19,000
1057,12;32,000
1057,65;40,000
1058,19;108,00
1058,72;153,00
1059,26;83,000
1059,79;-31,000
1060,32;16,000
1060,86;61,000
1061,39;52,000
1061,93;-5,0000
1062,46;115,00
1062,99;-22,000
1063,53;15,000
1064,06;120,00
1064,59;26,000
1065,13;74,000
1065,66;10,0000
1066,19;13,000
1066,73;71,000
1067,26;-9,0000
1067,79;83,000
1068,33;98,000
1068,86;90,000
1069,39;112,00
1069,92;101,00
1070,46;123,00
1070,99;35,000
1071,52;5,0000
1072,05;23,000
1072,59;48,000
1073,12;-27,000
1073,65;124,00
1074,18;93,000
1074,72;71,000
1075,25;-11,000
1075,78;36,000
1076,31;-12,000
1076,85;-13,000
1077,38;15,000
1077,91;1,0000
1078,44;114,00
1078,97;11,000
1079,51;46,000
1080,04;16,000
1080,57;94,000
1081,10;31,000
1081,63;39,000
1082,16;16,000
1082,70;-18,000
1083,23;92,000
1083,76;131,00
1084,29;24,000
1084,82;-16,000
1085,35;47,000
1085,88;58,000
1086,41;64,000
1086,94;96,000
1087,48;43,000
1088,01;36,000
1088,54;76,000
1089,07;6,0000
1089,60;41,000
1090,13;-54,000
1090,66;26,000
1091,19;70,000
1091,72;-28,000
1092,25;78,000
1092,78;31,000
1093,31;34,000
1093,84;85,000
1094,37;27,000
1094,90;37,000
1095,43;201,00
1095,96;12,000
1096,49;42,000
1097,02;7,0000
1097,55;35,000
1098,08;60,000
1098,61;126,00
1099,14;107,00
1099,67;-23,000
1100,20;37,000
